73CSV  	
// AQ6373B OPTICAL SPECTRUM ANALYZER //                 
35
"CTRWL", 976.000000
"SPAN",  50.000000
"START WL", 951.000000
"STOP WL",1001.000000
"WLFREQ", 0
"REFL",-32.2
"LSCL",10.0
"RESLN",0.050
"AVG",   1
"SMPLAUTO",      1
"SMPL",       5001
"SMPLINTVL",0.0100
"HIGH1"
"MEAS"
"LSUNT",0
"NMSKH","OFF"
"RESCOR",0
"SMOOTH",0
"MEASWL",0
"SWPSPD",0
"CHGPT",          0
"RESCAL0_0",       9389
"RESCAL0_1",        538
"RESCAL0_2",    -340913
"RESCAL1_0",       9652
"RESCAL1_1",         64
"RESCAL1_2",     -41039
"CORESIZE", 0







"[TRACE DATA]"
 951.0000,-210.000
 951.0100, -78.173
 951.0200, -83.754
 951.0300, -80.903
 951.0400, -76.118
 951.0500, -76.224
 951.0600, -76.562
 951.0700, -81.801
 951.0800, -81.206
 951.0900, -77.828
 951.1000, -88.855
 951.1100, -87.344
 951.1200, -79.324
 951.1300, -78.530
 951.1400, -77.850
 951.1500, -81.104
 951.1600, -80.639
 951.1700, -80.792
 951.1800, -78.090
 951.1900, -78.997
 951.2000, -81.621
 951.2100, -77.384
 951.2200, -77.289
 951.2300, -78.153
 951.2400,-109.264
 951.2500, -79.059
 951.2600,-210.000
 951.2700, -83.402
 951.2800, -79.403
 951.2900, -77.231
 951.3000, -76.741
 951.3100, -78.808
 951.3200, -80.858
 951.3300, -79.088
 951.3400, -77.523
 951.3500, -77.607
 951.3600, -82.096
 951.3700, -81.118
 951.3800, -83.690
 951.3900, -81.756
 951.4000, -78.158
 951.4100, -79.534
 951.4200, -82.227
 951.4300, -82.799
 951.4400, -78.483
 951.4500, -82.882
 951.4600, -84.913
 951.4700, -80.639
 951.4800, -81.983
 951.4900, -78.009
 951.5000, -76.623
 951.5100,-210.000
 951.5200, -81.864
 951.5300, -77.761
 951.5400, -80.974
 951.5500, -79.682
 951.5600, -78.676
 951.5700, -77.947
 951.5800, -77.545
 951.5900, -82.071
 951.6000, -76.264
 951.6100, -78.815
 951.6200, -80.912
 951.6300, -78.730
 951.6400, -79.142
 951.6500, -84.850
 951.6600, -81.912
 951.6700, -75.354
 951.6800, -83.410
 951.6900, -75.632
 951.7000, -82.844
 951.7100, -77.361
 951.7200, -79.603
 951.7300, -78.855
 951.7400, -79.317
 951.7500, -78.635
 951.7600, -78.317
 951.7700, -78.204
 951.7800, -80.838
 951.7900, -78.933
 951.8000, -80.185
 951.8100, -80.574
 951.8200, -75.627
 951.8300, -79.111
 951.8400, -79.071
 951.8500, -81.869
 951.8600, -79.070
 951.8700, -77.302
 951.8800, -87.927
 951.8900, -77.833
 951.9000, -77.694
 951.9100, -78.522
 951.9200, -85.934
 951.9300, -76.931
 951.9400, -77.607
 951.9500, -80.257
 951.9600, -80.414
 951.9700, -78.897
 951.9800, -83.680
 951.9900, -79.727
 952.0000, -78.605
 952.0100, -79.652
 952.0200, -76.420
 952.0300, -77.984
 952.0400, -91.505
 952.0500, -83.927
 952.0600, -80.408
 952.0700,-210.000
 952.0800, -77.133
 952.0900,-210.000
 952.1000, -76.949
 952.1100, -78.013
 952.1200, -76.734
 952.1300, -80.721
 952.1400, -78.537
 952.1500, -75.975
 952.1600, -82.076
 952.1700, -81.249
 952.1800, -77.033
 952.1900, -78.182
 952.2000, -97.635
 952.2100, -78.409
 952.2200, -77.378
 952.2300, -76.638
 952.2400, -78.449
 952.2500, -78.404
 952.2600, -78.292
 952.2700, -79.278
 952.2800, -78.192
 952.2900, -75.661
 952.3000, -82.032
 952.3100,-210.000
 952.3200, -81.297
 952.3300, -83.702
 952.3400, -80.227
 952.3500,-210.000
 952.3600, -79.914
 952.3700, -78.615
 952.3800,-210.000
 952.3900, -77.543
 952.4000, -76.081
 952.4100, -82.184
 952.4200,-210.000
 952.4300, -86.815
 952.4400, -79.357
 952.4500, -77.706
 952.4600, -76.727
 952.4700, -79.774
 952.4800, -80.178
 952.4900, -80.610
 952.5000, -82.504
 952.5100, -79.966
 952.5200, -80.467
 952.5300, -82.605
 952.5400, -78.977
 952.5500, -75.743
 952.5600, -80.532
 952.5700, -83.580
 952.5800, -77.639
 952.5900, -79.985
 952.6000, -79.606
 952.6100, -79.133
 952.6200, -80.615
 952.6300, -84.511
 952.6400, -81.120
 952.6500, -83.319
 952.6600, -78.389
 952.6700, -77.398
 952.6800, -78.291
 952.6900, -77.182
 952.7000, -80.739
 952.7100, -79.849
 952.7200, -78.790
 952.7300, -77.793
 952.7400, -77.765
 952.7500, -79.318
 952.7600, -75.606
 952.7700, -76.926
 952.7800, -92.888
 952.7900, -76.812
 952.8000, -79.841
 952.8100, -78.268
 952.8200, -76.746
 952.8300, -80.934
 952.8400, -82.564
 952.8500, -79.231
 952.8600, -76.980
 952.8700, -80.160
 952.8800, -77.980
 952.8900, -77.474
 952.9000, -81.288
 952.9100, -77.831
 952.9200, -78.371
 952.9300, -80.263
 952.9400, -76.414
 952.9500, -78.552
 952.9600, -77.166
 952.9700, -76.668
 952.9800, -76.518
 952.9900, -81.189
 953.0000, -77.766
 953.0100, -76.830
 953.0200, -82.424
 953.0300, -80.203
 953.0400,-210.000
 953.0500, -81.089
 953.0600, -77.608
 953.0700, -76.097
 953.0800, -79.699
 953.0900, -76.938
 953.1000, -78.912
 953.1100,-210.000
 953.1200, -93.782
 953.1300, -78.536
 953.1400, -87.259
 953.1500, -81.361
 953.1600, -78.102
 953.1700, -78.576
 953.1800, -75.599
 953.1900, -81.869
 953.2000, -78.729
 953.2100,-210.000
 953.2200, -77.958
 953.2300, -78.616
 953.2400, -76.543
 953.2500, -80.349
 953.2600, -76.386
 953.2700, -78.115
 953.2800, -80.121
 953.2900, -80.995
 953.3000, -80.153
 953.3100, -78.866
 953.3200, -83.611
 953.3300, -94.416
 953.3400, -83.272
 953.3500, -76.325
 953.3600, -75.972
 953.3700, -76.199
 953.3800, -81.577
 953.3900, -84.085
 953.4000, -78.501
 953.4100, -79.410
 953.4200, -82.257
 953.4300, -82.811
 953.4400, -78.786
 953.4500, -77.355
 953.4600, -78.405
 953.4700,-210.000
 953.4800, -80.697
 953.4900, -78.554
 953.5000, -77.820
 953.5100, -77.555
 953.5200, -76.609
 953.5300, -78.056
 953.5400, -78.398
 953.5500, -79.158
 953.5600, -77.839
 953.5700, -76.274
 953.5800, -75.653
 953.5900, -78.803
 953.6000,-102.979
 953.6100, -79.384
 953.6200, -81.554
 953.6300, -76.804
 953.6400, -80.801
 953.6500, -80.797
 953.6600, -76.853
 953.6700, -78.166
 953.6800, -86.105
 953.6900, -81.871
 953.7000, -78.488
 953.7100, -78.343
 953.7200, -78.045
 953.7300, -81.972
 953.7400, -77.583
 953.7500, -77.833
 953.7600, -84.081
 953.7700, -82.935
 953.7800, -78.001
 953.7900, -80.028
 953.8000, -77.558
 953.8100, -75.806
 953.8200, -77.612
 953.8300, -80.510
 953.8400, -81.299
 953.8500, -77.231
 953.8600, -78.054
 953.8700, -79.583
 953.8800, -80.180
 953.8900, -82.588
 953.9000, -83.170
 953.9100, -88.028
 953.9200, -80.629
 953.9300, -77.001
 953.9400, -76.862
 953.9500, -79.398
 953.9600, -76.810
 953.9700, -80.024
 953.9800, -82.346
 953.9900, -79.623
 954.0000, -80.236
 954.0100, -77.696
 954.0200, -80.488
 954.0300, -80.722
 954.0400,-210.000
 954.0500, -77.291
 954.0600, -77.912
 954.0700, -80.596
 954.0800, -79.177
 954.0900, -78.340
 954.1000, -77.261
 954.1100, -79.771
 954.1200, -76.231
 954.1300, -76.078
 954.1400, -74.745
 954.1500, -81.187
 954.1600, -79.840
 954.1700, -79.717
 954.1800, -81.387
 954.1900, -77.753
 954.2000, -79.775
 954.2100, -79.392
 954.2200, -76.743
 954.2300, -76.282
 954.2400, -79.591
 954.2500, -77.073
 954.2600, -75.043
 954.2700, -77.237
 954.2800,-100.056
 954.2900, -79.263
 954.3000, -82.621
 954.3100, -77.877
 954.3200, -80.251
 954.3300, -78.640
 954.3400, -80.593
 954.3500, -77.006
 954.3600, -77.054
 954.3700, -77.715
 954.3800, -80.143
 954.3900, -80.205
 954.4000, -77.520
 954.4100, -82.649
 954.4200, -79.228
 954.4300, -77.871
 954.4400, -76.579
 954.4500, -76.984
 954.4600, -78.263
 954.4700, -76.418
 954.4800, -78.172
 954.4900, -76.486
 954.5000, -79.487
 954.5100, -78.990
 954.5200, -76.318
 954.5300, -80.137
 954.5400, -85.385
 954.5500, -78.646
 954.5600, -80.789
 954.5700, -78.949
 954.5800, -78.868
 954.5900, -77.953
 954.6000, -79.789
 954.6100, -77.475
 954.6200, -81.600
 954.6300, -81.951
 954.6400, -75.842
 954.6500, -77.964
 954.6600, -79.667
 954.6700, -76.912
 954.6800, -77.468
 954.6900, -81.593
 954.7000, -77.090
 954.7100, -75.796
 954.7200, -76.949
 954.7300, -79.455
 954.7400,-210.000
 954.7500, -79.029
 954.7600, -82.063
 954.7700, -77.795
 954.7800, -77.858
 954.7900, -78.218
 954.8000, -76.969
 954.8100, -83.256
 954.8200, -76.028
 954.8300, -76.721
 954.8400, -87.435
 954.8500, -77.221
 954.8600, -75.439
 954.8700, -80.842
 954.8800, -79.207
 954.8900, -78.086
 954.9000, -75.986
 954.9100, -76.021
 954.9200, -79.710
 954.9300, -78.287
 954.9400, -80.812
 954.9500, -76.540
 954.9600, -81.128
 954.9700, -76.964
 954.9800, -83.862
 954.9900, -78.639
 955.0000, -80.677
 955.0100, -78.594
 955.0200, -79.492
 955.0300, -77.639
 955.0400, -79.114
 955.0500, -79.452
 955.0600, -79.930
 955.0700, -79.052
 955.0800, -77.808
 955.0900, -76.339
 955.1000, -82.447
 955.1100, -79.373
 955.1200, -78.317
 955.1300, -78.114
 955.1400, -75.525
 955.1500, -84.646
 955.1600, -82.031
 955.1700, -79.939
 955.1800, -78.567
 955.1900, -79.133
 955.2000, -78.845
 955.2100,-210.000
 955.2200, -76.470
 955.2300, -77.297
 955.2400, -76.442
 955.2500, -81.641
 955.2600, -75.596
 955.2700, -80.895
 955.2800, -80.078
 955.2900, -84.850
 955.3000, -80.693
 955.3100, -77.169
 955.3200, -76.196
 955.3300, -75.406
 955.3400, -78.169
 955.3500, -76.840
 955.3600, -77.284
 955.3700, -81.606
 955.3800, -78.336
 955.3900, -77.796
 955.4000, -81.895
 955.4100, -81.302
 955.4200, -76.072
 955.4300, -76.674
 955.4400, -76.630
 955.4500, -79.346
 955.4600, -78.246
 955.4700, -77.533
 955.4800, -84.120
 955.4900, -76.551
 955.5000, -76.907
 955.5100, -78.704
 955.5200, -76.944
 955.5300, -75.829
 955.5400, -77.813
 955.5500, -78.596
 955.5600, -79.215
 955.5700, -78.562
 955.5800, -80.869
 955.5900, -76.175
 955.6000, -76.796
 955.6100, -77.953
 955.6200, -75.095
 955.6300, -76.574
 955.6400, -78.447
 955.6500, -77.272
 955.6600, -77.312
 955.6700, -75.766
 955.6800, -82.474
 955.6900, -76.946
 955.7000, -82.746
 955.7100, -76.722
 955.7200, -78.899
 955.7300, -79.538
 955.7400, -77.871
 955.7500, -78.967
 955.7600, -80.851
 955.7700, -79.827
 955.7800, -75.395
 955.7900, -82.091
 955.8000, -83.484
 955.8100, -81.801
 955.8200, -74.821
 955.8300, -75.630
 955.8400, -77.571
 955.8500, -74.900
 955.8600, -75.245
 955.8700, -76.507
 955.8800, -77.717
 955.8900, -79.210
 955.9000, -79.095
 955.9100, -85.148
 955.9200, -78.857
 955.9300, -78.547
 955.9400, -77.931
 955.9500, -81.177
 955.9600, -75.656
 955.9700, -77.017
 955.9800, -77.527
 955.9900, -76.568
 956.0000, -77.387
 956.0100, -78.189
 956.0200, -78.851
 956.0300, -78.385
 956.0400, -78.169
 956.0500, -78.265
 956.0600, -91.350
 956.0700, -75.887
 956.0800, -75.554
 956.0900, -77.255
 956.1000, -81.029
 956.1100, -80.036
 956.1200, -78.786
 956.1300, -76.300
 956.1400, -79.469
 956.1500, -77.883
 956.1600, -78.553
 956.1700, -81.122
 956.1800, -79.098
 956.1900, -77.360
 956.2000, -79.261
 956.2100, -75.758
 956.2200, -80.809
 956.2300, -78.101
 956.2400, -78.499
 956.2500, -82.228
 956.2600, -76.325
 956.2700, -76.685
 956.2800, -78.937
 956.2900, -83.266
 956.3000, -82.030
 956.3100, -76.562
 956.3200, -75.242
 956.3300, -76.728
 956.3400, -76.906
 956.3500, -78.623
 956.3600, -79.118
 956.3700, -76.213
 956.3800, -78.995
 956.3900, -76.735
 956.4000, -79.410
 956.4100, -77.388
 956.4200, -78.447
 956.4300, -77.787
 956.4400, -80.236
 956.4500, -77.522
 956.4600, -76.261
 956.4700, -78.041
 956.4800, -79.958
 956.4900, -76.793
 956.5000, -81.357
 956.5100,-210.000
 956.5200, -77.247
 956.5300, -77.098
 956.5400, -77.919
 956.5500, -75.648
 956.5600, -80.654
 956.5700, -78.172
 956.5800, -79.726
 956.5900, -77.103
 956.6000, -77.750
 956.6100, -76.259
 956.6200, -78.450
 956.6300, -79.900
 956.6400, -78.953
 956.6500, -78.551
 956.6600, -77.847
 956.6700, -78.171
 956.6800, -76.272
 956.6900, -76.417
 956.7000, -75.191
 956.7100, -76.564
 956.7200, -76.585
 956.7300, -76.821
 956.7400, -79.309
 956.7500, -78.981
 956.7600, -77.170
 956.7700, -76.236
 956.7800, -80.992
 956.7900, -76.109
 956.8000, -80.264
 956.8100, -77.335
 956.8200, -77.382
 956.8300, -75.710
 956.8400, -84.804
 956.8500, -76.253
 956.8600, -79.458
 956.8700, -76.606
 956.8800, -75.982
 956.8900, -78.758
 956.9000, -76.655
 956.9100, -80.321
 956.9200, -77.174
 956.9300, -77.464
 956.9400, -81.041
 956.9500, -80.332
 956.9600, -76.010
 956.9700, -78.178
 956.9800, -77.710
 956.9900, -76.456
 957.0000, -76.608
 957.0100, -76.561
 957.0200, -78.212
 957.0300, -77.127
 957.0400, -76.385
 957.0500, -79.750
 957.0600, -79.136
 957.0700, -81.110
 957.0800, -78.489
 957.0900, -78.287
 957.1000, -76.850
 957.1100, -75.883
 957.1200, -75.637
 957.1300, -77.303
 957.1400, -78.423
 957.1500, -76.135
 957.1600, -76.517
 957.1700, -81.209
 957.1800, -78.786
 957.1900, -80.145
 957.2000, -76.119
 957.2100, -77.293
 957.2200, -75.239
 957.2300, -74.916
 957.2400, -77.561
 957.2500, -75.263
 957.2600, -76.619
 957.2700, -76.386
 957.2800, -76.409
 957.2900, -78.083
 957.3000, -80.450
 957.3100, -76.355
 957.3200, -76.835
 957.3300, -75.127
 957.3400, -77.738
 957.3500, -76.401
 957.3600, -90.303
 957.3700, -78.076
 957.3800, -76.658
 957.3900, -74.706
 957.4000, -78.428
 957.4100, -76.043
 957.4200, -76.838
 957.4300, -77.753
 957.4400, -75.743
 957.4500, -77.170
 957.4600, -76.794
 957.4700, -77.881
 957.4800, -77.715
 957.4900, -76.301
 957.5000, -76.383
 957.5100, -81.735
 957.5200, -81.991
 957.5300, -76.874
 957.5400, -78.496
 957.5500, -75.903
 957.5600, -76.660
 957.5700, -76.509
 957.5800, -74.944
 957.5900, -85.763
 957.6000, -76.749
 957.6100, -77.971
 957.6200, -75.932
 957.6300, -75.931
 957.6400, -76.061
 957.6500, -75.987
 957.6600, -75.207
 957.6700, -79.272
 957.6800, -77.030
 957.6900, -78.101
 957.7000, -75.184
 957.7100, -81.557
 957.7200, -78.703
 957.7300, -76.772
 957.7400, -75.201
 957.7500, -76.375
 957.7600, -83.954
 957.7700, -77.355
 957.7800, -76.962
 957.7900, -75.421
 957.8000, -82.159
 957.8100, -75.693
 957.8200, -76.214
 957.8300, -75.877
 957.8400, -79.507
 957.8500, -75.376
 957.8600, -77.050
 957.8700, -78.252
 957.8800, -75.940
 957.8900, -75.242
 957.9000, -74.474
 957.9100, -78.856
 957.9200, -76.340
 957.9300, -73.643
 957.9400, -78.062
 957.9500, -77.750
 957.9600, -77.241
 957.9700, -76.629
 957.9800, -75.275
 957.9900, -75.890
 958.0000, -75.510
 958.0100, -74.749
 958.0200, -77.346
 958.0300, -77.307
 958.0400, -75.189
 958.0500, -75.754
 958.0600, -76.493
 958.0700, -75.685
 958.0800, -75.445
 958.0900, -80.972
 958.1000, -75.742
 958.1100, -76.110
 958.1200, -75.378
 958.1300, -76.307
 958.1400, -75.396
 958.1500, -75.061
 958.1600, -76.937
 958.1700, -77.633
 958.1800, -76.353
 958.1900, -77.385
 958.2000, -76.321
 958.2100, -75.635
 958.2200, -75.508
 958.2300, -79.154
 958.2400, -75.628
 958.2500, -77.703
 958.2600, -74.691
 958.2700, -77.483
 958.2800, -75.628
 958.2900, -76.965
 958.3000, -76.725
 958.3100, -75.337
 958.3200, -76.485
 958.3300, -76.631
 958.3400, -77.257
 958.3500, -77.812
 958.3600, -76.083
 958.3700, -74.747
 958.3800, -78.750
 958.3900, -78.160
 958.4000, -73.813
 958.4100, -76.579
 958.4200, -77.901
 958.4300, -76.268
 958.4400, -75.438
 958.4500, -76.986
 958.4600, -75.671
 958.4700, -75.598
 958.4800, -75.790
 958.4900, -74.378
 958.5000, -77.441
 958.5100, -76.382
 958.5200, -75.292
 958.5300, -74.615
 958.5400, -76.872
 958.5500, -75.961
 958.5600, -79.947
 958.5700, -76.281
 958.5800, -79.333
 958.5900, -77.243
 958.6000, -74.310
 958.6100, -75.258
 958.6200, -75.377
 958.6300, -77.194
 958.6400, -75.925
 958.6500, -77.129
 958.6600, -76.471
 958.6700, -75.936
 958.6800, -75.558
 958.6900, -73.625
 958.7000, -76.576
 958.7100, -76.450
 958.7200, -77.155
 958.7300, -74.854
 958.7400, -76.567
 958.7500, -77.286
 958.7600, -76.720
 958.7700, -75.722
 958.7800, -75.101
 958.7900, -74.469
 958.8000, -80.233
 958.8100, -74.774
 958.8200, -74.894
 958.8300, -75.717
 958.8400, -74.857
 958.8500, -75.463
 958.8600, -75.087
 958.8700, -74.007
 958.8800, -77.262
 958.8900, -77.171
 958.9000, -75.996
 958.9100, -74.887
 958.9200, -76.488
 958.9300, -74.977
 958.9400, -76.544
 958.9500, -76.356
 958.9600, -75.846
 958.9700, -75.322
 958.9800, -74.849
 958.9900, -80.157
 959.0000, -75.734
 959.0100, -77.458
 959.0200, -76.474
 959.0300, -73.955
 959.0400, -76.823
 959.0500, -82.068
 959.0600, -74.442
 959.0700, -74.940
 959.0800, -74.583
 959.0900, -75.023
 959.1000, -74.786
 959.1100, -77.355
 959.1200, -75.393
 959.1300, -74.761
 959.1400, -73.905
 959.1500, -73.866
 959.1600, -76.743
 959.1700, -76.077
 959.1800, -75.981
 959.1900, -76.600
 959.2000, -76.523
 959.2100, -75.612
 959.2200, -77.805
 959.2300, -79.040
 959.2400, -75.580
 959.2500, -76.879
 959.2600, -76.241
 959.2700, -76.209
 959.2800, -76.371
 959.2900, -75.333
 959.3000, -76.408
 959.3100, -75.368
 959.3200, -76.285
 959.3300, -76.239
 959.3400, -74.894
 959.3500, -75.481
 959.3600, -76.628
 959.3700, -78.119
 959.3800, -74.711
 959.3900, -75.262
 959.4000, -75.547
 959.4100, -77.583
 959.4200, -75.003
 959.4300, -76.281
 959.4400, -76.310
 959.4500, -74.543
 959.4600, -76.237
 959.4700, -77.319
 959.4800, -75.860
 959.4900, -75.147
 959.5000, -75.686
 959.5100, -77.423
 959.5200, -75.826
 959.5300, -74.774
 959.5400, -76.014
 959.5500, -75.849
 959.5600, -77.537
 959.5700, -74.026
 959.5800, -75.190
 959.5900, -75.612
 959.6000, -75.248
 959.6100, -74.157
 959.6200, -75.982
 959.6300, -74.882
 959.6400, -75.112
 959.6500, -74.862
 959.6600, -75.375
 959.6700, -74.651
 959.6800, -74.541
 959.6900, -75.240
 959.7000, -76.124
 959.7100, -76.612
 959.7200, -75.408
 959.7300, -76.411
 959.7400, -75.980
 959.7500, -76.515
 959.7600, -74.460
 959.7700, -78.209
 959.7800, -78.443
 959.7900, -74.533
 959.8000, -75.877
 959.8100, -74.694
 959.8200, -75.765
 959.8300, -77.031
 959.8400, -74.261
 959.8500, -76.982
 959.8600, -75.240
 959.8700, -74.513
 959.8800, -76.041
 959.8900, -75.560
 959.9000, -75.080
 959.9100, -76.587
 959.9200, -75.693
 959.9300, -75.739
 959.9400, -77.195
 959.9500, -75.971
 959.9600, -75.189
 959.9700, -75.381
 959.9800, -74.373
 959.9900, -74.362
 960.0000, -74.829
 960.0100, -75.634
 960.0200, -74.918
 960.0300, -74.909
 960.0400, -74.546
 960.0500, -74.384
 960.0600, -74.524
 960.0700, -75.604
 960.0800, -73.716
 960.0900, -75.179
 960.1000, -76.449
 960.1100, -73.011
 960.1200, -74.044
 960.1300, -74.913
 960.1400, -73.612
 960.1500, -75.229
 960.1600, -74.296
 960.1700, -74.431
 960.1800, -75.263
 960.1900, -75.403
 960.2000, -74.480
 960.2100, -74.510
 960.2200, -74.259
 960.2300, -75.518
 960.2400, -75.324
 960.2500, -74.166
 960.2600, -76.495
 960.2700, -74.590
 960.2800, -77.001
 960.2900, -76.420
 960.3000, -74.877
 960.3100, -74.794
 960.3200, -75.015
 960.3300, -73.431
 960.3400, -77.736
 960.3500, -74.653
 960.3600, -73.552
 960.3700, -74.289
 960.3800, -73.758
 960.3900, -74.226
 960.4000, -75.510
 960.4100, -74.616
 960.4200, -75.540
 960.4300, -75.626
 960.4400, -75.282
 960.4500, -74.398
 960.4600, -75.523
 960.4700, -72.944
 960.4800, -73.980
 960.4900, -72.723
 960.5000, -73.713
 960.5100, -74.098
 960.5200, -74.475
 960.5300, -73.513
 960.5400, -74.142
 960.5500, -73.566
 960.5600, -74.913
 960.5700, -74.992
 960.5800, -73.125
 960.5900, -74.850
 960.6000, -73.201
 960.6100, -74.368
 960.6200, -74.527
 960.6300, -74.679
 960.6400, -74.383
 960.6500, -74.265
 960.6600, -74.472
 960.6700, -73.910
 960.6800, -74.705
 960.6900, -74.548
 960.7000, -74.020
 960.7100, -73.931
 960.7200, -73.965
 960.7300, -74.949
 960.7400, -73.936
 960.7500, -73.672
 960.7600, -73.756
 960.7700, -74.837
 960.7800, -74.119
 960.7900, -73.065
 960.8000, -73.465
 960.8100, -74.712
 960.8200, -74.773
 960.8300, -75.272
 960.8400, -73.733
 960.8500, -73.756
 960.8600, -73.634
 960.8700, -77.372
 960.8800, -74.123
 960.8900, -74.463
 960.9000, -75.046
 960.9100, -73.313
 960.9200, -75.670
 960.9300, -73.564
 960.9400, -75.965
 960.9500, -74.746
 960.9600, -73.931
 960.9700, -73.159
 960.9800, -73.933
 960.9900, -75.336
 961.0000, -74.005
 961.0100, -74.813
 961.0200, -74.364
 961.0300, -74.182
 961.0400, -73.463
 961.0500, -73.875
 961.0600, -74.951
 961.0700, -74.718
 961.0800, -74.367
 961.0900, -74.291
 961.1000, -74.107
 961.1100, -74.400
 961.1200, -73.772
 961.1300, -73.967
 961.1400, -73.913
 961.1500, -73.542
 961.1600, -73.085
 961.1700, -73.432
 961.1800, -73.317
 961.1900, -72.723
 961.2000, -75.416
 961.2100, -75.339
 961.2200, -73.712
 961.2300, -72.863
 961.2400, -73.528
 961.2500, -72.885
 961.2600, -73.903
 961.2700, -72.526
 961.2800, -73.944
 961.2900, -73.534
 961.3000, -72.961
 961.3100, -74.924
 961.3200, -73.180
 961.3300, -74.021
 961.3400, -72.331
 961.3500, -73.983
 961.3600, -72.731
 961.3700, -72.768
 961.3800, -73.420
 961.3900, -73.028
 961.4000, -73.763
 961.4100, -73.342
 961.4200, -72.995
 961.4300, -73.830
 961.4400, -75.727
 961.4500, -72.609
 961.4600, -73.491
 961.4700, -73.567
 961.4800, -74.029
 961.4900, -73.357
 961.5000, -73.311
 961.5100, -73.821
 961.5200, -73.372
 961.5300, -73.325
 961.5400, -73.870
 961.5500, -73.219
 961.5600, -71.743
 961.5700, -72.483
 961.5800, -72.871
 961.5900, -73.450
 961.6000, -74.019
 961.6100, -72.605
 961.6200, -71.764
 961.6300, -72.329
 961.6400, -72.504
 961.6500, -72.430
 961.6600, -72.183
 961.6700, -73.299
 961.6800, -72.865
 961.6900, -73.807
 961.7000, -73.838
 961.7100, -72.332
 961.7200, -72.058
 961.7300, -73.148
 961.7400, -73.613
 961.7500, -72.295
 961.7600, -73.259
 961.7700, -72.751
 961.7800, -72.057
 961.7900, -73.180
 961.8000, -72.614
 961.8100, -72.957
 961.8200, -72.256
 961.8300, -72.920
 961.8400, -73.662
 961.8500, -72.770
 961.8600, -73.067
 961.8700, -73.830
 961.8800, -72.942
 961.8900, -73.767
 961.9000, -73.501
 961.9100, -71.854
 961.9200, -72.485
 961.9300, -72.871
 961.9400, -73.476
 961.9500, -71.778
 961.9600, -72.152
 961.9700, -72.986
 961.9800, -73.511
 961.9900, -72.642
 962.0000, -73.068
 962.0100, -73.136
 962.0200, -73.564
 962.0300, -72.071
 962.0400, -71.628
 962.0500, -72.956
 962.0600, -72.730
 962.0700, -72.778
 962.0800, -73.112
 962.0900, -74.883
 962.1000, -73.455
 962.1100, -72.447
 962.1200, -73.841
 962.1300, -73.788
 962.1400, -71.395
 962.1500, -72.938
 962.1600, -73.584
 962.1700, -71.320
 962.1800, -72.346
 962.1900, -72.534
 962.2000, -72.685
 962.2100, -71.780
 962.2200, -72.389
 962.2300, -72.172
 962.2400, -73.033
 962.2500, -73.057
 962.2600, -71.645
 962.2700, -72.647
 962.2800, -72.001
 962.2900, -72.342
 962.3000, -72.523
 962.3100, -72.243
 962.3200, -73.538
 962.3300, -72.331
 962.3400, -72.027
 962.3500, -72.517
 962.3600, -71.419
 962.3700, -72.681
 962.3800, -72.307
 962.3900, -73.022
 962.4000, -72.777
 962.4100, -72.097
 962.4200, -73.027
 962.4300, -72.639
 962.4400, -72.133
 962.4500, -73.230
 962.4600, -73.079
 962.4700, -72.175
 962.4800, -71.704
 962.4900, -72.780
 962.5000, -72.024
 962.5100, -72.004
 962.5200, -71.479
 962.5300, -71.988
 962.5400, -71.531
 962.5500, -72.445
 962.5600, -72.934
 962.5700, -71.184
 962.5800, -71.767
 962.5900, -72.000
 962.6000, -71.889
 962.6100, -71.848
 962.6200, -71.977
 962.6300, -71.039
 962.6400, -71.454
 962.6500, -72.525
 962.6600, -72.878
 962.6700, -72.227
 962.6800, -72.357
 962.6900, -72.613
 962.7000, -71.933
 962.7100, -72.564
 962.7200, -72.345
 962.7300, -72.217
 962.7400, -73.024
 962.7500, -73.034
 962.7600, -71.764
 962.7700, -72.227
 962.7800, -71.884
 962.7900, -72.009
 962.8000, -72.798
 962.8100, -72.531
 962.8200, -72.647
 962.8300, -72.538
 962.8400, -71.870
 962.8500, -71.684
 962.8600, -71.809
 962.8700, -71.867
 962.8800, -72.020
 962.8900, -72.092
 962.9000, -72.427
 962.9100, -72.064
 962.9200, -72.464
 962.9300, -71.369
 962.9400, -71.199
 962.9500, -71.488
 962.9600, -72.403
 962.9700, -71.589
 962.9800, -71.945
 962.9900, -72.346
 963.0000, -72.076
 963.0100, -71.723
 963.0200, -72.704
 963.0300, -71.480
 963.0400, -71.735
 963.0500, -71.718
 963.0600, -71.871
 963.0700, -71.591
 963.0800, -72.020
 963.0900, -72.604
 963.1000, -72.021
 963.1100, -71.958
 963.1200, -71.690
 963.1300, -71.618
 963.1400, -72.415
 963.1500, -72.168
 963.1600, -72.029
 963.1700, -71.819
 963.1800, -71.618
 963.1900, -71.771
 963.2000, -71.523
 963.2100, -71.551
 963.2200, -71.043
 963.2300, -71.632
 963.2400, -71.532
 963.2500, -71.080
 963.2600, -70.841
 963.2700, -71.264
 963.2800, -71.786
 963.2900, -71.922
 963.3000, -71.626
 963.3100, -71.952
 963.3200, -71.127
 963.3300, -71.837
 963.3400, -71.564
 963.3500, -71.572
 963.3600, -71.737
 963.3700, -71.720
 963.3800, -71.339
 963.3900, -71.163
 963.4000, -70.901
 963.4100, -71.904
 963.4200, -70.378
 963.4300, -70.897
 963.4400, -71.408
 963.4500, -71.306
 963.4600, -71.012
 963.4700, -71.442
 963.4800, -71.509
 963.4900, -71.010
 963.5000, -71.192
 963.5100, -72.060
 963.5200, -71.459
 963.5300, -71.329
 963.5400, -70.477
 963.5500, -70.913
 963.5600, -71.045
 963.5700, -70.913
 963.5800, -70.556
 963.5900, -71.247
 963.6000, -70.643
 963.6100, -70.721
 963.6200, -71.494
 963.6300, -70.379
 963.6400, -70.396
 963.6500, -71.076
 963.6600, -70.477
 963.6700, -70.404
 963.6800, -70.383
 963.6900, -70.552
 963.7000, -70.808
 963.7100, -71.260
 963.7200, -70.824
 963.7300, -70.955
 963.7400, -69.797
 963.7500, -70.473
 963.7600, -70.075
 963.7700, -70.745
 963.7800, -70.691
 963.7900, -70.152
 963.8000, -70.283
 963.8100, -70.672
 963.8200, -70.241
 963.8300, -69.984
 963.8400, -70.314
 963.8500, -69.954
 963.8600, -70.257
 963.8700, -70.802
 963.8800, -70.395
 963.8900, -70.225
 963.9000, -71.087
 963.9100, -70.424
 963.9200, -70.023
 963.9300, -70.449
 963.9400, -70.174
 963.9500, -69.984
 963.9600, -70.689
 963.9700, -70.194
 963.9800, -70.173
 963.9900, -69.771
 964.0000, -70.186
 964.0100, -69.790
 964.0200, -69.897
 964.0300, -69.470
 964.0400, -69.814
 964.0500, -70.248
 964.0600, -70.156
 964.0700, -70.164
 964.0800, -69.968
 964.0900, -70.187
 964.1000, -69.837
 964.1100, -70.184
 964.1200, -69.622
 964.1300, -70.370
 964.1400, -69.476
 964.1500, -69.779
 964.1600, -69.765
 964.1700, -69.755
 964.1800, -69.248
 964.1900, -70.016
 964.2000, -69.896
 964.2100, -69.526
 964.2200, -69.383
 964.2300, -69.718
 964.2400, -70.303
 964.2500, -69.922
 964.2600, -69.472
 964.2700, -69.615
 964.2800, -69.678
 964.2900, -69.791
 964.3000, -70.024
 964.3100, -69.905
 964.3200, -69.909
 964.3300, -70.331
 964.3400, -69.851
 964.3500, -69.360
 964.3600, -69.700
 964.3700, -69.971
 964.3800, -69.390
 964.3900, -69.588
 964.4000, -69.414
 964.4100, -69.553
 964.4200, -69.057
 964.4300, -69.512
 964.4400, -69.069
 964.4500, -69.515
 964.4600, -69.603
 964.4700, -69.133
 964.4800, -69.188
 964.4900, -69.275
 964.5000, -69.352
 964.5100, -69.397
 964.5200, -69.229
 964.5300, -69.449
 964.5400, -69.159
 964.5500, -69.339
 964.5600, -69.012
 964.5700, -69.391
 964.5800, -68.963
 964.5900, -69.420
 964.6000, -69.548
 964.6100, -69.071
 964.6200, -68.684
 964.6300, -68.987
 964.6400, -68.681
 964.6500, -69.178
 964.6600, -69.172
 964.6700, -69.109
 964.6800, -68.774
 964.6900, -68.544
 964.7000, -68.399
 964.7100, -68.765
 964.7200, -69.159
 964.7300, -68.679
 964.7400, -68.680
 964.7500, -68.333
 964.7600, -68.683
 964.7700, -68.210
 964.7800, -68.079
 964.7900, -68.745
 964.8000, -68.314
 964.8100, -68.088
 964.8200, -68.448
 964.8300, -67.992
 964.8400, -67.723
 964.8500, -67.729
 964.8600, -67.760
 964.8700, -67.947
 964.8800, -68.222
 964.8900, -68.013
 964.9000, -68.497
 964.9100, -68.542
 964.9200, -68.422
 964.9300, -68.096
 964.9400, -68.447
 964.9500, -68.359
 964.9600, -68.085
 964.9700, -68.428
 964.9800, -68.040
 964.9900, -68.635
 965.0000, -68.480
 965.0100, -67.932
 965.0200, -68.345
 965.0300, -68.172
 965.0400, -68.109
 965.0500, -68.361
 965.0600, -68.407
 965.0700, -68.232
 965.0800, -67.818
 965.0900, -68.066
 965.1000, -68.325
 965.1100, -68.123
 965.1200, -67.955
 965.1300, -68.120
 965.1400, -68.049
 965.1500, -68.064
 965.1600, -68.000
 965.1700, -67.776
 965.1800, -67.601
 965.1900, -68.227
 965.2000, -67.707
 965.2100, -67.987
 965.2200, -67.401
 965.2300, -67.524
 965.2400, -67.867
 965.2500, -67.750
 965.2600, -67.556
 965.2700, -67.969
 965.2800, -67.789
 965.2900, -67.603
 965.3000, -67.560
 965.3100, -67.653
 965.3200, -67.248
 965.3300, -67.430
 965.3400, -67.210
 965.3500, -67.263
 965.3600, -67.482
 965.3700, -67.559
 965.3800, -67.513
 965.3900, -67.438
 965.4000, -67.209
 965.4100, -67.299
 965.4200, -67.061
 965.4300, -67.126
 965.4400, -66.978
 965.4500, -67.140
 965.4600, -67.011
 965.4700, -66.756
 965.4800, -66.817
 965.4900, -67.081
 965.5000, -66.799
 965.5100, -66.944
 965.5200, -66.621
 965.5300, -66.388
 965.5400, -66.768
 965.5500, -66.538
 965.5600, -66.719
 965.5700, -66.247
 965.5800, -66.761
 965.5900, -66.646
 965.6000, -66.507
 965.6100, -66.421
 965.6200, -66.451
 965.6300, -66.528
 965.6400, -66.498
 965.6500, -66.464
 965.6600, -66.480
 965.6700, -66.379
 965.6800, -66.514
 965.6900, -66.555
 965.7000, -66.109
 965.7100, -66.555
 965.7200, -66.083
 965.7300, -65.994
 965.7400, -65.973
 965.7500, -65.731
 965.7600, -65.476
 965.7700, -65.094
 965.7800, -64.173
 965.7900, -62.377
 965.8000, -61.786
 965.8100, -57.566
 965.8200, -58.257
 965.8300, -58.025
 965.8400, -55.930
 965.8500, -55.536
 965.8600, -55.032
 965.8700, -55.722
 965.8800, -57.714
 965.8900, -56.396
 965.9000, -55.442
 965.9100, -56.958
 965.9200, -55.031
 965.9300, -57.327
 965.9400, -58.059
 965.9500, -57.637
 965.9600, -58.119
 965.9700, -60.839
 965.9800, -62.533
 965.9900, -64.568
 966.0000, -64.959
 966.0100, -65.213
 966.0200, -65.242
 966.0300, -65.202
 966.0400, -65.172
 966.0500, -65.233
 966.0600, -65.067
 966.0700, -65.419
 966.0800, -65.312
 966.0900, -65.459
 966.1000, -65.349
 966.1100, -65.309
 966.1200, -65.018
 966.1300, -65.069
 966.1400, -65.089
 966.1500, -64.956
 966.1600, -63.806
 966.1700, -59.495
 966.1800, -58.347
 966.1900, -55.919
 966.2000, -55.230
 966.2100, -58.402
 966.2200, -58.115
 966.2300, -55.402
 966.2400, -55.895
 966.2500, -53.525
 966.2600, -56.361
 966.2700, -60.012
 966.2800, -54.388
 966.2900, -54.128
 966.3000, -53.291
 966.3100, -52.456
 966.3200, -53.504
 966.3300, -52.533
 966.3400, -50.308
 966.3500, -50.883
 966.3600, -50.416
 966.3700, -53.357
 966.3800, -53.303
 966.3900, -51.071
 966.4000, -50.296
 966.4100, -50.052
 966.4200, -49.828
 966.4300, -51.977
 966.4400, -51.024
 966.4500, -49.319
 966.4600, -50.044
 966.4700, -48.476
 966.4800, -49.700
 966.4900, -52.052
 966.5000, -50.256
 966.5100, -49.657
 966.5200, -51.103
 966.5300, -49.511
 966.5400, -50.767
 966.5500, -51.309
 966.5600, -49.249
 966.5700, -49.453
 966.5800, -49.266
 966.5900, -50.704
 966.6000, -52.667
 966.6100, -51.861
 966.6200, -51.847
 966.6300, -50.858
 966.6400, -49.099
 966.6500, -46.302
 966.6600, -44.685
 966.6700, -43.410
 966.6800, -42.169
 966.6900, -41.291
 966.7000, -40.077
 966.7100, -39.260
 966.7200, -39.535
 966.7300, -39.438
 966.7400, -39.533
 966.7500, -39.494
 966.7600, -39.025
 966.7700, -39.803
 966.7800, -40.404
 966.7900, -40.896
 966.8000, -41.420
 966.8100, -41.692
 966.8200, -42.243
 966.8300, -43.479
 966.8400, -45.395
 966.8500, -48.887
 966.8600, -52.499
 966.8700, -53.300
 966.8800, -52.894
 966.8900, -49.498
 966.9000, -46.646
 966.9100, -43.411
 966.9200, -41.405
 966.9300, -40.453
 966.9400, -39.226
 966.9500, -38.708
 966.9600, -38.347
 966.9700, -37.542
 966.9800, -37.665
 966.9900, -37.916
 967.0000, -37.333
 967.0100, -37.692
 967.0200, -38.254
 967.0300, -39.025
 967.0400, -39.409
 967.0500, -39.562
 967.0600, -39.988
 967.0700, -41.629
 967.0800, -42.835
 967.0900, -43.309
 967.1000, -42.228
 967.1100, -41.851
 967.1200, -41.191
 967.1300, -40.403
 967.1400, -39.890
 967.1500, -39.013
 967.1600, -39.406
 967.1700, -39.819
 967.1800, -40.075
 967.1900, -40.101
 967.2000, -40.089
 967.2100, -39.506
 967.2200, -40.696
 967.2300, -40.785
 967.2400, -41.379
 967.2500, -42.037
 967.2600, -43.823
 967.2700, -45.683
 967.2800, -47.409
 967.2900, -48.773
 967.3000, -49.728
 967.3100, -50.895
 967.3200, -51.892
 967.3300, -50.109
 967.3400, -49.056
 967.3500, -48.064
 967.3600, -47.383
 967.3700, -45.596
 967.3800, -44.273
 967.3900, -43.589
 967.4000, -42.372
 967.4100, -42.219
 967.4200, -41.106
 967.4300, -40.055
 967.4400, -40.698
 967.4500, -40.843
 967.4600, -40.447
 967.4700, -40.254
 967.4800, -39.766
 967.4900, -39.611
 967.5000, -39.804
 967.5100, -39.841
 967.5200, -40.506
 967.5300, -40.942
 967.5400, -41.860
 967.5500, -42.309
 967.5600, -42.710
 967.5700, -43.090
 967.5800, -42.853
 967.5900, -43.651
 967.6000, -44.269
 967.6100, -43.774
 967.6200, -44.063
 967.6300, -44.119
 967.6400, -44.879
 967.6500, -45.730
 967.6600, -44.899
 967.6700, -44.995
 967.6800, -45.638
 967.6900, -44.954
 967.7000, -46.089
 967.7100, -46.854
 967.7200, -46.757
 967.7300, -47.390
 967.7400, -48.061
 967.7500, -48.757
 967.7600, -48.957
 967.7700, -49.885
 967.7800, -49.990
 967.7900, -49.394
 967.8000, -48.868
 967.8100, -47.831
 967.8200, -46.900
 967.8300, -46.825
 967.8400, -46.713
 967.8500, -46.238
 967.8600, -45.877
 967.8700, -45.883
 967.8800, -44.873
 967.8900, -44.046
 967.9000, -43.486
 967.9100, -42.951
 967.9200, -43.989
 967.9300, -43.842
 967.9400, -42.504
 967.9500, -42.117
 967.9600, -42.149
 967.9700, -42.677
 967.9800, -43.012
 967.9900, -42.849
 968.0000, -42.664
 968.0100, -42.416
 968.0200, -42.252
 968.0300, -42.048
 968.0400, -41.288
 968.0500, -41.510
 968.0600, -41.070
 968.0700, -40.387
 968.0800, -39.389
 968.0900, -38.555
 968.1000, -37.784
 968.1100, -37.009
 968.1200, -36.590
 968.1300, -35.984
 968.1400, -35.699
 968.1500, -35.693
 968.1600, -35.148
 968.1700, -35.163
 968.1800, -35.052
 968.1900, -34.993
 968.2000, -35.326
 968.2100, -35.017
 968.2200, -34.986
 968.2300, -35.244
 968.2400, -35.471
 968.2500, -36.024
 968.2600, -36.208
 968.2700, -36.336
 968.2800, -36.425
 968.2900, -36.370
 968.3000, -36.499
 968.3100, -36.378
 968.3200, -35.441
 968.3300, -34.447
 968.3400, -34.027
 968.3500, -34.095
 968.3600, -34.713
 968.3700, -35.047
 968.3800, -34.891
 968.3900, -34.968
 968.4000, -35.276
 968.4100, -35.724
 968.4200, -36.366
 968.4300, -36.145
 968.4400, -36.447
 968.4500, -37.003
 968.4600, -38.121
 968.4700, -40.056
 968.4800, -42.872
 968.4900, -45.577
 968.5000, -46.191
 968.5100, -46.223
 968.5200, -45.356
 968.5300, -44.885
 968.5400, -44.343
 968.5500, -43.920
 968.5600, -43.658
 968.5700, -43.191
 968.5800, -43.244
 968.5900, -43.172
 968.6000, -42.555
 968.6100, -42.263
 968.6200, -41.852
 968.6300, -41.407
 968.6400, -40.860
 968.6500, -40.585
 968.6600, -40.150
 968.6700, -39.546
 968.6800, -39.369
 968.6900, -38.802
 968.7000, -38.335
 968.7100, -38.700
 968.7200, -38.783
 968.7300, -38.244
 968.7400, -38.051
 968.7500, -37.064
 968.7600, -37.329
 968.7700, -37.299
 968.7800, -37.063
 968.7900, -37.411
 968.8000, -37.288
 968.8100, -37.544
 968.8200, -38.643
 968.8300, -38.967
 968.8400, -38.843
 968.8500, -38.467
 968.8600, -38.175
 968.8700, -37.909
 968.8800, -37.736
 968.8900, -37.806
 968.9000, -38.226
 968.9100, -38.651
 968.9200, -39.328
 968.9300, -39.924
 968.9400, -40.177
 968.9500, -40.043
 968.9600, -39.651
 968.9700, -39.266
 968.9800, -39.138
 968.9900, -39.555
 969.0000, -40.075
 969.0100, -40.735
 969.0200, -41.253
 969.0300, -41.444
 969.0400, -41.267
 969.0500, -40.695
 969.0600, -40.712
 969.0700, -40.577
 969.0800, -40.663
 969.0900, -40.618
 969.1000, -40.556
 969.1100, -40.050
 969.1200, -39.687
 969.1300, -39.534
 969.1400, -39.313
 969.1500, -39.355
 969.1600, -39.500
 969.1700, -39.344
 969.1800, -39.562
 969.1900, -39.127
 969.2000, -38.414
 969.2100, -37.730
 969.2200, -36.930
 969.2300, -36.547
 969.2400, -36.117
 969.2500, -36.097
 969.2600, -36.203
 969.2700, -36.001
 969.2800, -35.369
 969.2900, -34.633
 969.3000, -33.930
 969.3100, -33.464
 969.3200, -33.186
 969.3300, -32.837
 969.3400, -32.613
 969.3500, -32.421
 969.3600, -32.204
 969.3700, -32.400
 969.3800, -32.635
 969.3900, -32.692
 969.4000, -33.077
 969.4100, -32.875
 969.4200, -32.901
 969.4300, -33.414
 969.4400, -33.980
 969.4500, -35.033
 969.4600, -35.538
 969.4700, -35.900
 969.4800, -36.849
 969.4900, -37.951
 969.5000, -38.979
 969.5100, -40.005
 969.5200, -40.442
 969.5300, -40.566
 969.5400, -40.618
 969.5500, -40.630
 969.5600, -40.835
 969.5700, -41.270
 969.5800, -41.268
 969.5900, -41.485
 969.6000, -41.686
 969.6100, -41.925
 969.6200, -41.757
 969.6300, -42.237
 969.6400, -42.383
 969.6500, -42.362
 969.6600, -42.334
 969.6700, -42.016
 969.6800, -41.521
 969.6900, -40.379
 969.7000, -39.426
 969.7100, -38.535
 969.7200, -37.786
 969.7300, -37.616
 969.7400, -36.762
 969.7500, -35.884
 969.7600, -35.524
 969.7700, -35.205
 969.7800, -35.005
 969.7900, -34.523
 969.8000, -34.423
 969.8100, -34.206
 969.8200, -34.044
 969.8300, -33.968
 969.8400, -33.948
 969.8500, -34.107
 969.8600, -34.430
 969.8700, -34.604
 969.8800, -34.638
 969.8900, -34.577
 969.9000, -35.226
 969.9100, -35.763
 969.9200, -35.972
 969.9300, -36.044
 969.9400, -36.224
 969.9500, -36.311
 969.9600, -36.875
 969.9700, -37.203
 969.9800, -37.119
 969.9900, -37.275
 970.0000, -37.526
 970.0100, -37.909
 970.0200, -37.997
 970.0300, -38.094
 970.0400, -38.425
 970.0500, -38.783
 970.0600, -39.060
 970.0700, -39.769
 970.0800, -40.371
 970.0900, -41.516
 970.1000, -42.301
 970.1100, -43.208
 970.1200, -43.238
 970.1300, -42.305
 970.1400, -43.103
 970.1500, -43.278
 970.1600, -43.460
 970.1700, -43.361
 970.1800, -43.040
 970.1900, -42.921
 970.2000, -43.722
 970.2100, -43.779
 970.2200, -43.504
 970.2300, -43.095
 970.2400, -42.821
 970.2500, -42.960
 970.2600, -43.218
 970.2700, -43.743
 970.2800, -43.074
 970.2900, -44.166
 970.3000, -45.092
 970.3100, -44.530
 970.3200, -44.856
 970.3300, -45.012
 970.3400, -45.178
 970.3500, -45.515
 970.3600, -45.573
 970.3700, -45.981
 970.3800, -46.175
 970.3900, -46.309
 970.4000, -46.383
 970.4100, -46.395
 970.4200, -46.899
 970.4300, -47.136
 970.4400, -46.824
 970.4500, -45.238
 970.4600, -42.919
 970.4700, -42.047
 970.4800, -41.508
 970.4900, -41.175
 970.5000, -41.709
 970.5100, -40.597
 970.5200, -40.371
 970.5300, -40.793
 970.5400, -40.940
 970.5500, -40.795
 970.5600, -40.390
 970.5700, -39.271
 970.5800, -39.449
 970.5900, -39.605
 970.6000, -39.870
 970.6100, -40.066
 970.6200, -40.280
 970.6300, -41.247
 970.6400, -41.983
 970.6500, -42.226
 970.6600, -42.292
 970.6700, -42.422
 970.6800, -42.634
 970.6900, -42.665
 970.7000, -43.317
 970.7100, -44.170
 970.7200, -44.949
 970.7300, -46.387
 970.7400, -47.991
 970.7500, -49.613
 970.7600, -52.355
 970.7700, -56.577
 970.7800, -59.706
 970.7900, -61.302
 970.8000, -62.447
 970.8100, -63.088
 970.8200, -63.691
 970.8300, -63.874
 970.8400, -64.237
 970.8500, -64.466
 970.8600, -64.515
 970.8700, -64.787
 970.8800, -64.815
 970.8900, -65.072
 970.9000, -64.722
 970.9100, -64.460
 970.9200, -64.833
 970.9300, -64.877
 970.9400, -64.841
 970.9500, -64.648
 970.9600, -64.425
 970.9700, -64.367
 970.9800, -64.094
 970.9900, -63.340
 971.0000, -60.557
 971.0100, -60.094
 971.0200, -55.445
 971.0300, -53.718
 971.0400, -52.667
 971.0500, -51.047
 971.0600, -53.739
 971.0700, -54.098
 971.0800, -52.296
 971.0900, -51.245
 971.1000, -51.798
 971.1100, -50.966
 971.1200, -52.938
 971.1300, -51.349
 971.1400, -50.572
 971.1500, -50.930
 971.1600, -49.096
 971.1700, -52.916
 971.1800, -56.947
 971.1900, -55.111
 971.2000, -57.641
 971.2100, -58.372
 971.2200, -57.562
 971.2300, -62.259
 971.2400, -62.491
 971.2500, -60.754
 971.2600, -62.050
 971.2700, -61.165
 971.2800, -66.087
 971.2900, -67.275
 971.3000, -66.199
 971.3100, -67.224
 971.3200, -67.738
 971.3300, -67.717
 971.3400, -67.766
 971.3500, -67.363
 971.3600, -66.858
 971.3700, -64.422
 971.3800, -62.101
 971.3900, -57.068
 971.4000, -51.484
 971.4100, -53.426
 971.4200, -53.517
 971.4300, -52.907
 971.4400, -54.802
 971.4500, -48.936
 971.4600, -49.460
 971.4700, -52.241
 971.4800, -52.989
 971.4900, -52.906
 971.5000, -50.850
 971.5100, -48.377
 971.5200, -52.540
 971.5300, -53.718
 971.5400, -54.602
 971.5500, -56.736
 971.5600, -55.209
 971.5700, -58.354
 971.5800, -64.517
 971.5900, -66.886
 971.6000, -68.460
 971.6100, -68.523
 971.6200, -68.165
 971.6300, -69.122
 971.6400, -69.760
 971.6500, -69.865
 971.6600, -69.893
 971.6700, -69.209
 971.6800, -69.581
 971.6900, -70.013
 971.7000, -69.971
 971.7100, -70.108
 971.7200, -69.216
 971.7300, -69.792
 971.7400, -70.365
 971.7500, -70.663
 971.7600, -70.359
 971.7700, -70.190
 971.7800, -70.116
 971.7900, -70.338
 971.8000, -70.455
 971.8100, -70.285
 971.8200, -71.143
 971.8300, -70.678
 971.8400, -70.516
 971.8500, -70.597
 971.8600, -70.194
 971.8700, -71.122
 971.8800, -70.828
 971.8900, -70.789
 971.9000, -71.061
 971.9100, -70.757
 971.9200, -70.676
 971.9300, -70.423
 971.9400, -71.493
 971.9500, -71.670
 971.9600, -70.952
 971.9700, -71.076
 971.9800, -71.575
 971.9900, -70.931
 972.0000, -70.838
 972.0100, -71.292
 972.0200, -71.587
 972.0300, -70.736
 972.0400, -71.109
 972.0500, -71.093
 972.0600, -71.398
 972.0700, -70.929
 972.0800, -71.381
 972.0900, -71.787
 972.1000, -71.523
 972.1100, -71.560
 972.1200, -71.138
 972.1300, -72.550
 972.1400, -71.084
 972.1500, -71.181
 972.1600, -71.374
 972.1700, -71.156
 972.1800, -71.769
 972.1900, -72.021
 972.2000, -71.341
 972.2100, -70.751
 972.2200, -72.060
 972.2300, -71.916
 972.2400, -71.802
 972.2500, -71.935
 972.2600, -72.174
 972.2700, -71.338
 972.2800, -71.906
 972.2900, -71.717
 972.3000, -71.470
 972.3100, -71.833
 972.3200, -72.005
 972.3300, -71.526
 972.3400, -71.835
 972.3500, -72.225
 972.3600, -72.607
 972.3700, -71.402
 972.3800, -72.172
 972.3900, -72.008
 972.4000, -73.634
 972.4100, -72.019
 972.4200, -71.827
 972.4300, -72.040
 972.4400, -71.895
 972.4500, -72.172
 972.4600, -72.757
 972.4700, -72.115
 972.4800, -72.173
 972.4900, -72.339
 972.5000, -72.984
 972.5100, -72.546
 972.5200, -71.844
 972.5300, -73.085
 972.5400, -73.801
 972.5500, -73.592
 972.5600, -73.874
 972.5700, -72.167
 972.5800, -71.861
 972.5900, -72.348
 972.6000, -71.767
 972.6100, -72.891
 972.6200, -72.688
 972.6300, -72.712
 972.6400, -73.482
 972.6500, -72.691
 972.6600, -73.844
 972.6700, -73.035
 972.6800, -73.344
 972.6900, -73.325
 972.7000, -72.716
 972.7100, -72.657
 972.7200, -73.426
 972.7300, -72.648
 972.7400, -73.070
 972.7500, -73.536
 972.7600, -72.665
 972.7700, -72.939
 972.7800, -73.574
 972.7900, -73.393
 972.8000, -73.569
 972.8100, -72.695
 972.8200, -74.100
 972.8300, -73.289
 972.8400, -73.004
 972.8500, -73.371
 972.8600, -74.105
 972.8700, -74.009
 972.8800, -73.863
 972.8900, -72.493
 972.9000, -72.610
 972.9100, -73.481
 972.9200, -73.698
 972.9300, -72.746
 972.9400, -73.611
 972.9500, -72.781
 972.9600, -73.601
 972.9700, -74.150
 972.9800, -74.852
 972.9900, -73.930
 973.0000, -73.083
 973.0100, -72.790
 973.0200, -73.419
 973.0300, -73.137
 973.0400, -73.982
 973.0500, -72.816
 973.0600, -73.166
 973.0700, -72.384
 973.0800, -74.568
 973.0900, -73.879
 973.1000, -73.566
 973.1100, -74.253
 973.1200, -73.404
 973.1300, -73.784
 973.1400, -74.127
 973.1500, -73.530
 973.1600, -73.644
 973.1700, -74.316
 973.1800, -74.289
 973.1900, -74.020
 973.2000, -73.851
 973.2100, -73.148
 973.2200, -73.954
 973.2300, -75.952
 973.2400, -74.133
 973.2500, -74.846
 973.2600, -73.716
 973.2700, -74.171
 973.2800, -74.656
 973.2900, -73.177
 973.3000, -74.600
 973.3100, -75.252
 973.3200, -73.079
 973.3300, -75.135
 973.3400, -74.502
 973.3500, -74.625
 973.3600, -73.274
 973.3700, -73.061
 973.3800, -73.908
 973.3900, -74.029
 973.4000, -73.590
 973.4100, -73.997
 973.4200, -74.927
 973.4300, -74.221
 973.4400, -74.420
 973.4500, -72.750
 973.4600, -72.513
 973.4700, -73.484
 973.4800, -74.168
 973.4900, -73.623
 973.5000, -74.712
 973.5100, -75.009
 973.5200, -75.984
 973.5300, -72.901
 973.5400, -74.176
 973.5500, -73.349
 973.5600, -73.308
 973.5700, -74.073
 973.5800, -73.505
 973.5900, -74.291
 973.6000, -75.407
 973.6100, -75.098
 973.6200, -73.739
 973.6300, -74.258
 973.6400, -73.208
 973.6500, -75.894
 973.6600, -75.852
 973.6700, -75.793
 973.6800, -75.998
 973.6900, -74.269
 973.7000, -75.179
 973.7100, -73.986
 973.7200, -74.131
 973.7300, -75.714
 973.7400, -74.474
 973.7500, -74.547
 973.7600, -74.402
 973.7700, -74.288
 973.7800, -75.135
 973.7900, -74.090
 973.8000, -74.816
 973.8100, -74.933
 973.8200, -75.928
 973.8300, -75.694
 973.8400, -75.431
 973.8500, -73.389
 973.8600, -73.517
 973.8700, -75.647
 973.8800, -74.874
 973.8900, -76.381
 973.9000, -76.173
 973.9100, -73.907
 973.9200, -73.695
 973.9300, -78.161
 973.9400, -74.338
 973.9500, -75.949
 973.9600, -78.522
 973.9700, -76.586
 973.9800, -76.842
 973.9900, -74.917
 974.0000, -76.343
 974.0100, -76.297
 974.0200, -74.976
 974.0300, -74.727
 974.0400, -74.412
 974.0500, -75.786
 974.0600, -75.477
 974.0700, -74.197
 974.0800, -74.998
 974.0900, -74.138
 974.1000, -77.174
 974.1100, -77.499
 974.1200, -74.476
 974.1300, -79.317
 974.1400, -73.839
 974.1500, -74.941
 974.1600, -75.373
 974.1700, -75.375
 974.1800, -75.889
 974.1900, -75.531
 974.2000, -76.547
 974.2100, -74.859
 974.2200, -75.875
 974.2300, -75.649
 974.2400, -75.527
 974.2500, -76.928
 974.2600, -76.530
 974.2700, -77.396
 974.2800, -90.461
 974.2900, -75.741
 974.3000, -75.369
 974.3100, -75.903
 974.3200, -76.387
 974.3300, -74.605
 974.3400, -76.961
 974.3500, -76.974
 974.3600, -75.731
 974.3700, -77.857
 974.3800, -75.070
 974.3900, -75.781
 974.4000, -75.012
 974.4100, -77.265
 974.4200, -77.350
 974.4300, -77.930
 974.4400, -79.149
 974.4500, -76.260
 974.4600, -76.192
 974.4700, -74.627
 974.4800, -75.929
 974.4900, -76.580
 974.5000, -78.491
 974.5100, -74.911
 974.5200, -74.896
 974.5300, -77.075
 974.5400, -75.854
 974.5500, -75.732
 974.5600, -76.473
 974.5700, -76.516
 974.5800, -75.767
 974.5900, -75.065
 974.6000, -77.306
 974.6100, -75.557
 974.6200, -78.165
 974.6300, -78.175
 974.6400, -78.076
 974.6500, -75.433
 974.6600, -76.384
 974.6700, -75.959
 974.6800, -78.688
 974.6900, -74.851
 974.7000, -77.463
 974.7100, -75.729
 974.7200, -75.880
 974.7300, -77.136
 974.7400, -77.245
 974.7500, -77.343
 974.7600, -75.960
 974.7700, -75.562
 974.7800, -78.655
 974.7900, -77.570
 974.8000, -75.861
 974.8100, -78.523
 974.8200, -74.996
 974.8300, -75.461
 974.8400, -76.648
 974.8500, -74.168
 974.8600, -75.392
 974.8700, -75.724
 974.8800, -76.771
 974.8900, -76.688
 974.9000, -81.510
 974.9100, -83.343
 974.9200, -75.287
 974.9300, -76.768
 974.9400, -75.490
 974.9500, -75.727
 974.9600, -77.377
 974.9700, -75.423
 974.9800, -75.113
 974.9900, -74.504
 975.0000, -75.685
 975.0100, -75.423
 975.0200, -77.117
 975.0300, -77.002
 975.0400, -77.631
 975.0500, -76.006
 975.0600, -77.354
 975.0700, -77.440
 975.0800, -77.179
 975.0900, -77.410
 975.1000, -76.428
 975.1100, -75.356
 975.1200, -77.401
 975.1300, -76.474
 975.1400, -79.079
 975.1500, -75.895
 975.1600, -75.201
 975.1700, -77.703
 975.1800, -76.572
 975.1900, -76.980
 975.2000, -76.252
 975.2100, -77.769
 975.2200, -77.222
 975.2300, -82.446
 975.2400, -77.471
 975.2500, -76.439
 975.2600, -75.581
 975.2700, -76.239
 975.2800, -75.381
 975.2900, -78.918
 975.3000, -75.953
 975.3100, -76.398
 975.3200, -79.122
 975.3300, -75.212
 975.3400, -76.817
 975.3500, -75.301
 975.3600, -77.987
 975.3700, -79.210
 975.3800, -77.160
 975.3900, -76.236
 975.4000, -76.889
 975.4100, -76.676
 975.4200, -77.295
 975.4300, -77.364
 975.4400, -77.688
 975.4500, -76.093
 975.4600, -77.099
 975.4700, -76.841
 975.4800, -75.989
 975.4900, -80.370
 975.5000, -77.776
 975.5100, -76.170
 975.5200, -77.510
 975.5300, -77.151
 975.5400, -77.680
 975.5500, -76.223
 975.5600, -75.845
 975.5700, -78.046
 975.5800, -76.235
 975.5900, -76.673
 975.6000, -76.786
 975.6100, -77.677
 975.6200, -76.574
 975.6300, -77.553
 975.6400, -76.862
 975.6500, -77.516
 975.6600, -76.369
 975.6700, -75.318
 975.6800, -79.150
 975.6900, -77.212
 975.7000, -79.578
 975.7100, -76.781
 975.7200, -77.859
 975.7300, -77.675
 975.7400, -77.022
 975.7500, -78.140
 975.7600, -77.988
 975.7700, -80.073
 975.7800, -76.258
 975.7900, -79.483
 975.8000, -78.034
 975.8100, -75.102
 975.8200, -75.579
 975.8300, -78.542
 975.8400, -76.638
 975.8500, -76.149
 975.8600, -76.124
 975.8700, -75.947
 975.8800, -76.549
 975.8900, -77.973
 975.9000, -77.897
 975.9100, -76.851
 975.9200, -75.815
 975.9300, -77.097
 975.9400, -77.667
 975.9500, -74.740
 975.9600, -84.316
 975.9700, -75.284
 975.9800, -77.463
 975.9900, -81.770
 976.0000, -77.257
 976.0100, -77.082
 976.0200, -79.930
 976.0300, -74.050
 976.0400, -76.823
 976.0500, -76.847
 976.0600, -75.224
 976.0700, -83.299
 976.0800,-210.000
 976.0900, -76.931
 976.1000, -80.534
 976.1100, -79.263
 976.1200, -79.674
 976.1300, -80.680
 976.1400, -79.554
 976.1500, -74.916
 976.1600, -80.475
 976.1700, -78.259
 976.1800, -76.442
 976.1900, -76.728
 976.2000, -75.254
 976.2100, -76.806
 976.2200, -78.670
 976.2300, -77.363
 976.2400, -76.987
 976.2500, -76.549
 976.2600, -74.899
 976.2700, -80.032
 976.2800, -79.949
 976.2900, -79.098
 976.3000, -82.513
 976.3100, -77.067
 976.3200, -79.811
 976.3300, -75.888
 976.3400, -78.391
 976.3500, -78.261
 976.3600, -74.542
 976.3700, -76.686
 976.3800, -75.892
 976.3900, -77.338
 976.4000, -78.883
 976.4100, -75.645
 976.4200, -81.517
 976.4300, -83.245
 976.4400, -81.851
 976.4500, -81.021
 976.4600, -77.376
 976.4700, -78.144
 976.4800, -79.874
 976.4900, -78.494
 976.5000, -75.981
 976.5100, -77.144
 976.5200, -77.723
 976.5300, -77.725
 976.5400, -77.704
 976.5500, -79.474
 976.5600, -77.226
 976.5700, -78.904
 976.5800, -77.901
 976.5900, -76.989
 976.6000, -75.561
 976.6100, -76.118
 976.6200, -76.863
 976.6300, -76.490
 976.6400, -79.688
 976.6500, -78.919
 976.6600, -77.167
 976.6700, -80.720
 976.6800, -80.591
 976.6900, -81.930
 976.7000, -77.721
 976.7100, -78.519
 976.7200, -76.614
 976.7300, -78.575
 976.7400, -78.094
 976.7500, -82.238
 976.7600, -76.604
 976.7700, -77.278
 976.7800, -79.616
 976.7900, -78.711
 976.8000, -79.310
 976.8100, -77.862
 976.8200, -78.886
 976.8300, -81.497
 976.8400, -81.750
 976.8500, -75.801
 976.8600, -76.549
 976.8700, -77.144
 976.8800, -78.433
 976.8900, -77.745
 976.9000, -85.550
 976.9100, -77.371
 976.9200, -76.343
 976.9300, -74.659
 976.9400, -77.122
 976.9500, -78.051
 976.9600, -75.890
 976.9700, -77.845
 976.9800, -76.820
 976.9900, -78.734
 977.0000, -80.193
 977.0100, -76.282
 977.0200, -75.444
 977.0300, -77.840
 977.0400, -83.031
 977.0500, -79.459
 977.0600, -79.624
 977.0700, -78.361
 977.0800, -78.731
 977.0900, -78.669
 977.1000, -80.061
 977.1100, -77.167
 977.1200, -75.862
 977.1300, -83.363
 977.1400, -78.497
 977.1500, -81.241
 977.1600, -76.353
 977.1700, -78.829
 977.1800, -78.753
 977.1900, -78.647
 977.2000, -77.893
 977.2100, -76.370
 977.2200, -77.593
 977.2300, -76.933
 977.2400, -76.357
 977.2500, -76.633
 977.2600, -84.140
 977.2700, -78.198
 977.2800, -78.609
 977.2900, -76.940
 977.3000, -76.825
 977.3100, -78.080
 977.3200, -77.359
 977.3300, -81.980
 977.3400, -77.961
 977.3500, -74.911
 977.3600, -80.495
 977.3700, -76.470
 977.3800, -78.519
 977.3900, -77.023
 977.4000, -80.126
 977.4100, -79.194
 977.4200, -80.401
 977.4300, -79.108
 977.4400, -78.383
 977.4500, -80.125
 977.4600, -83.221
 977.4700, -79.705
 977.4800, -82.808
 977.4900, -79.251
 977.5000, -79.224
 977.5100, -77.499
 977.5200, -76.858
 977.5300, -77.419
 977.5400, -77.560
 977.5500, -76.559
 977.5600,-210.000
 977.5700, -78.777
 977.5800, -78.694
 977.5900, -77.656
 977.6000, -76.853
 977.6100, -83.194
 977.6200, -79.089
 977.6300, -77.919
 977.6400, -76.980
 977.6500, -79.753
 977.6600, -79.209
 977.6700, -83.335
 977.6800, -81.182
 977.6900, -77.181
 977.7000, -87.113
 977.7100, -78.317
 977.7200, -79.484
 977.7300, -77.080
 977.7400, -83.706
 977.7500, -81.216
 977.7600, -79.899
 977.7700, -80.005
 977.7800, -81.237
 977.7900, -80.001
 977.8000, -80.663
 977.8100, -77.562
 977.8200, -78.301
 977.8300, -80.674
 977.8400, -77.629
 977.8500, -76.873
 977.8600, -79.198
 977.8700, -91.659
 977.8800, -79.319
 977.8900, -79.483
 977.9000,-210.000
 977.9100, -78.134
 977.9200, -77.661
 977.9300, -79.163
 977.9400, -78.052
 977.9500, -76.348
 977.9600, -77.578
 977.9700, -79.553
 977.9800, -75.501
 977.9900, -96.899
 978.0000, -79.369
 978.0100, -78.648
 978.0200, -81.738
 978.0300, -77.132
 978.0400, -80.028
 978.0500, -79.169
 978.0600, -81.655
 978.0700, -75.977
 978.0800, -78.710
 978.0900, -84.130
 978.1000, -82.588
 978.1100, -77.095
 978.1200, -75.559
 978.1300, -78.484
 978.1400, -76.858
 978.1500, -77.436
 978.1600, -79.204
 978.1700, -78.062
 978.1800, -82.359
 978.1900, -79.766
 978.2000, -76.342
 978.2100, -77.817
 978.2200, -82.529
 978.2300,-210.000
 978.2400, -78.984
 978.2500, -80.514
 978.2600, -77.369
 978.2700, -78.273
 978.2800, -78.827
 978.2900, -78.477
 978.3000, -84.233
 978.3100, -79.948
 978.3200, -79.193
 978.3300, -77.011
 978.3400, -81.145
 978.3500, -79.635
 978.3600, -77.791
 978.3700, -79.379
 978.3800, -87.682
 978.3900, -81.217
 978.4000, -81.210
 978.4100, -80.376
 978.4200, -76.631
 978.4300, -79.106
 978.4400, -83.480
 978.4500, -81.453
 978.4600, -80.405
 978.4700, -78.991
 978.4800, -77.088
 978.4900, -78.553
 978.5000, -79.173
 978.5100, -77.998
 978.5200, -78.920
 978.5300, -76.396
 978.5400, -79.973
 978.5500, -78.256
 978.5600, -85.594
 978.5700,-210.000
 978.5800, -80.208
 978.5900, -79.492
 978.6000, -82.932
 978.6100, -80.114
 978.6200,-210.000
 978.6300, -80.258
 978.6400, -77.743
 978.6500, -77.652
 978.6600, -78.119
 978.6700, -76.740
 978.6800, -76.347
 978.6900, -80.156
 978.7000, -79.854
 978.7100, -84.169
 978.7200, -83.589
 978.7300, -78.371
 978.7400, -76.860
 978.7500, -79.456
 978.7600, -77.901
 978.7700, -83.471
 978.7800, -78.835
 978.7900, -87.787
 978.8000, -76.874
 978.8100, -79.327
 978.8200, -78.649
 978.8300, -77.931
 978.8400, -76.691
 978.8500, -81.136
 978.8600, -93.785
 978.8700, -89.309
 978.8800, -81.514
 978.8900, -76.461
 978.9000, -78.320
 978.9100, -80.773
 978.9200, -77.937
 978.9300, -78.183
 978.9400, -83.158
 978.9500, -80.908
 978.9600,-210.000
 978.9700, -76.762
 978.9800, -89.294
 978.9900, -86.024
 979.0000, -85.218
 979.0100, -80.018
 979.0200, -80.201
 979.0300, -77.947
 979.0400, -77.899
 979.0500, -76.490
 979.0600, -77.172
 979.0700, -77.006
 979.0800, -76.204
 979.0900, -82.978
 979.1000, -78.899
 979.1100, -78.008
 979.1200, -77.658
 979.1300, -75.648
 979.1400,-210.000
 979.1500, -77.914
 979.1600, -76.899
 979.1700, -77.623
 979.1800, -84.569
 979.1900, -78.243
 979.2000, -79.357
 979.2100, -82.456
 979.2200, -78.527
 979.2300, -81.129
 979.2400, -77.544
 979.2500, -79.650
 979.2600, -76.803
 979.2700, -79.109
 979.2800, -79.677
 979.2900, -75.714
 979.3000, -79.822
 979.3100, -83.168
 979.3200, -75.018
 979.3300, -79.868
 979.3400, -79.279
 979.3500, -78.965
 979.3600, -84.140
 979.3700, -79.140
 979.3800, -80.592
 979.3900, -76.027
 979.4000, -79.311
 979.4100, -78.666
 979.4200, -77.410
 979.4300, -78.976
 979.4400, -79.834
 979.4500,-210.000
 979.4600, -80.596
 979.4700, -78.344
 979.4800, -81.969
 979.4900, -77.097
 979.5000, -84.511
 979.5100, -77.712
 979.5200, -83.020
 979.5300, -78.422
 979.5400, -78.244
 979.5500, -77.281
 979.5600, -80.727
 979.5700, -78.435
 979.5800, -81.372
 979.5900, -77.139
 979.6000, -82.728
 979.6100, -78.370
 979.6200, -79.231
 979.6300, -83.563
 979.6400, -80.397
 979.6500, -78.169
 979.6600,-103.748
 979.6700, -76.676
 979.6800, -81.880
 979.6900, -90.619
 979.7000, -81.850
 979.7100, -78.739
 979.7200, -77.470
 979.7300, -79.544
 979.7400, -79.166
 979.7500, -82.691
 979.7600, -78.035
 979.7700, -76.131
 979.7800, -82.549
 979.7900, -81.190
 979.8000, -76.456
 979.8100, -80.957
 979.8200, -77.961
 979.8300, -77.836
 979.8400, -78.578
 979.8500, -86.884
 979.8600, -85.673
 979.8700, -89.981
 979.8800, -82.929
 979.8900, -76.256
 979.9000, -80.010
 979.9100, -80.665
 979.9200, -87.014
 979.9300, -79.783
 979.9400, -87.160
 979.9500, -78.312
 979.9600, -76.557
 979.9700, -76.635
 979.9800, -78.041
 979.9900, -77.828
 980.0000, -77.421
 980.0100, -77.308
 980.0200, -76.103
 980.0300, -83.838
 980.0400, -82.802
 980.0500, -79.163
 980.0600, -80.091
 980.0700, -78.990
 980.0800, -78.434
 980.0900, -77.293
 980.1000, -78.729
 980.1100, -78.930
 980.1200, -79.785
 980.1300, -82.795
 980.1400, -77.787
 980.1500, -78.999
 980.1600, -81.452
 980.1700, -78.332
 980.1800, -78.195
 980.1900, -75.867
 980.2000,-210.000
 980.2100, -81.351
 980.2200, -79.222
 980.2300, -77.014
 980.2400, -81.420
 980.2500, -78.534
 980.2600, -82.512
 980.2700, -79.743
 980.2800, -83.945
 980.2900, -77.450
 980.3000, -77.091
 980.3100, -77.974
 980.3200, -77.533
 980.3300, -79.425
 980.3400, -78.052
 980.3500, -78.449
 980.3600, -80.467
 980.3700, -85.809
 980.3800, -79.070
 980.3900, -93.134
 980.4000, -77.989
 980.4100, -78.285
 980.4200, -76.708
 980.4300, -79.999
 980.4400, -88.496
 980.4500, -76.274
 980.4600, -83.762
 980.4700, -80.186
 980.4800, -82.851
 980.4900, -79.381
 980.5000, -79.822
 980.5100, -77.780
 980.5200, -77.955
 980.5300, -78.039
 980.5400, -77.698
 980.5500, -80.384
 980.5600, -76.935
 980.5700, -81.585
 980.5800, -81.348
 980.5900, -77.633
 980.6000, -91.120
 980.6100, -79.572
 980.6200, -80.132
 980.6300,-210.000
 980.6400, -76.300
 980.6500, -80.470
 980.6600,-210.000
 980.6700, -76.200
 980.6800, -78.024
 980.6900, -77.335
 980.7000, -79.173
 980.7100, -78.346
 980.7200, -79.233
 980.7300, -77.787
 980.7400, -77.846
 980.7500, -80.555
 980.7600, -78.202
 980.7700, -78.875
 980.7800, -82.137
 980.7900, -77.966
 980.8000, -80.247
 980.8100, -82.998
 980.8200, -77.996
 980.8300, -85.088
 980.8400, -78.648
 980.8500, -79.101
 980.8600, -91.385
 980.8700, -80.896
 980.8800, -90.073
 980.8900, -78.608
 980.9000, -81.535
 980.9100, -83.248
 980.9200, -75.157
 980.9300,-103.505
 980.9400, -79.538
 980.9500, -81.199
 980.9600, -98.665
 980.9700, -79.111
 980.9800, -77.724
 980.9900, -77.804
 981.0000, -83.237
 981.0100, -77.287
 981.0200, -79.133
 981.0300, -80.704
 981.0400, -80.794
 981.0500, -77.894
 981.0600, -77.714
 981.0700, -85.637
 981.0800, -85.331
 981.0900, -79.740
 981.1000, -85.633
 981.1100, -81.063
 981.1200, -76.539
 981.1300, -77.665
 981.1400, -85.498
 981.1500, -76.579
 981.1600, -80.381
 981.1700, -76.183
 981.1800, -78.447
 981.1900, -80.637
 981.2000, -77.258
 981.2100, -83.591
 981.2200, -83.051
 981.2300, -80.012
 981.2400, -78.030
 981.2500, -79.755
 981.2600, -78.153
 981.2700, -80.003
 981.2800, -83.201
 981.2900, -76.937
 981.3000, -77.819
 981.3100, -84.740
 981.3200, -79.315
 981.3300, -76.818
 981.3400, -84.992
 981.3500, -77.863
 981.3600, -78.631
 981.3700, -77.095
 981.3800, -91.737
 981.3900,-210.000
 981.4000, -77.770
 981.4100, -82.635
 981.4200, -82.147
 981.4300, -77.485
 981.4400, -78.693
 981.4500, -78.353
 981.4600, -77.597
 981.4700, -79.597
 981.4800, -78.123
 981.4900, -81.228
 981.5000, -86.407
 981.5100, -80.056
 981.5200, -79.142
 981.5300, -87.195
 981.5400, -80.083
 981.5500, -80.877
 981.5600, -78.101
 981.5700, -76.590
 981.5800, -78.227
 981.5900, -78.014
 981.6000, -77.257
 981.6100, -83.494
 981.6200, -84.818
 981.6300, -78.813
 981.6400, -82.016
 981.6500, -84.404
 981.6600, -78.330
 981.6700,-210.000
 981.6800, -86.999
 981.6900, -78.910
 981.7000, -82.846
 981.7100, -84.901
 981.7200, -75.714
 981.7300, -79.985
 981.7400, -77.670
 981.7500, -85.054
 981.7600, -81.853
 981.7700, -82.023
 981.7800, -80.624
 981.7900, -79.297
 981.8000, -77.364
 981.8100, -77.098
 981.8200, -81.425
 981.8300,-210.000
 981.8400, -80.336
 981.8500, -78.636
 981.8600, -82.598
 981.8700, -78.624
 981.8800, -78.985
 981.8900, -75.559
 981.9000, -78.567
 981.9100, -81.084
 981.9200, -78.491
 981.9300, -80.375
 981.9400, -81.201
 981.9500, -83.959
 981.9600, -81.548
 981.9700, -75.598
 981.9800, -77.754
 981.9900, -77.613
 982.0000, -79.724
 982.0100, -80.865
 982.0200, -79.313
 982.0300, -79.313
 982.0400, -79.441
 982.0500, -77.780
 982.0600, -83.518
 982.0700,-210.000
 982.0800, -78.851
 982.0900, -88.247
 982.1000,-210.000
 982.1100, -76.402
 982.1200, -76.863
 982.1300, -86.974
 982.1400, -80.833
 982.1500, -79.523
 982.1600, -79.415
 982.1700, -77.779
 982.1800, -76.403
 982.1900, -80.033
 982.2000, -80.647
 982.2100, -80.034
 982.2200, -77.082
 982.2300, -81.978
 982.2400, -92.043
 982.2500, -82.104
 982.2600, -80.347
 982.2700, -80.663
 982.2800, -78.958
 982.2900, -79.064
 982.3000, -88.540
 982.3100, -91.905
 982.3200, -77.125
 982.3300,-210.000
 982.3400, -81.378
 982.3500, -83.103
 982.3600, -85.117
 982.3700, -76.498
 982.3800, -79.946
 982.3900, -78.083
 982.4000,-210.000
 982.4100, -80.792
 982.4200, -84.155
 982.4300, -79.121
 982.4400, -79.246
 982.4500, -75.794
 982.4600, -83.064
 982.4700, -83.514
 982.4800, -78.915
 982.4900, -76.677
 982.5000, -79.788
 982.5100, -78.916
 982.5200, -79.356
 982.5300, -77.516
 982.5400, -78.898
 982.5500, -79.463
 982.5600, -80.054
 982.5700, -81.067
 982.5800, -82.983
 982.5900, -86.786
 982.6000, -80.415
 982.6100, -78.783
 982.6200, -79.555
 982.6300, -79.590
 982.6400, -86.911
 982.6500, -79.797
 982.6600,-210.000
 982.6700, -77.545
 982.6800, -83.410
 982.6900, -88.528
 982.7000, -82.973
 982.7100, -78.668
 982.7200, -79.433
 982.7300, -82.879
 982.7400, -77.040
 982.7500, -86.988
 982.7600, -79.516
 982.7700, -82.755
 982.7800, -82.004
 982.7900, -86.241
 982.8000, -78.652
 982.8100, -81.920
 982.8200, -78.495
 982.8300, -86.971
 982.8400,-210.000
 982.8500, -78.229
 982.8600, -77.072
 982.8700, -85.028
 982.8800, -81.017
 982.8900, -84.650
 982.9000,-210.000
 982.9100, -75.868
 982.9200, -85.135
 982.9300, -77.459
 982.9400, -81.548
 982.9500, -77.712
 982.9600, -78.319
 982.9700, -79.394
 982.9800, -78.895
 982.9900, -79.213
 983.0000, -79.366
 983.0100,-210.000
 983.0200, -80.575
 983.0300, -80.016
 983.0400, -85.064
 983.0500, -86.008
 983.0600, -77.125
 983.0700,-210.000
 983.0800, -83.773
 983.0900, -76.863
 983.1000, -77.809
 983.1100, -75.623
 983.1200, -77.107
 983.1300, -84.018
 983.1400, -80.893
 983.1500, -78.300
 983.1600, -78.689
 983.1700, -78.895
 983.1800, -81.122
 983.1900, -81.440
 983.2000, -80.746
 983.2100, -84.951
 983.2200, -80.768
 983.2300, -77.505
 983.2400, -76.656
 983.2500, -81.701
 983.2600, -81.194
 983.2700, -79.271
 983.2800, -79.620
 983.2900, -78.960
 983.3000, -78.576
 983.3100, -84.321
 983.3200, -78.124
 983.3300, -80.033
 983.3400, -81.216
 983.3500, -81.218
 983.3600, -79.971
 983.3700, -77.880
 983.3800, -78.523
 983.3900, -85.827
 983.4000, -79.154
 983.4100, -81.591
 983.4200, -80.660
 983.4300, -81.364
 983.4400, -79.795
 983.4500, -80.530
 983.4600, -84.806
 983.4700, -80.806
 983.4800, -80.472
 983.4900, -77.023
 983.5000, -88.388
 983.5100, -80.739
 983.5200, -83.362
 983.5300, -80.327
 983.5400, -84.058
 983.5500, -80.628
 983.5600, -79.630
 983.5700, -77.585
 983.5800, -78.087
 983.5900, -77.162
 983.6000, -84.642
 983.6100,-210.000
 983.6200,-210.000
 983.6300, -90.639
 983.6400,-210.000
 983.6500, -83.072
 983.6600, -81.698
 983.6700, -81.027
 983.6800, -80.963
 983.6900, -80.860
 983.7000, -77.913
 983.7100, -82.611
 983.7200, -76.943
 983.7300, -79.595
 983.7400, -79.993
 983.7500, -78.156
 983.7600, -89.446
 983.7700, -84.747
 983.7800, -83.033
 983.7900, -78.035
 983.8000, -79.018
 983.8100, -77.136
 983.8200, -78.990
 983.8300, -81.864
 983.8400, -86.145
 983.8500, -79.107
 983.8600, -78.695
 983.8700, -77.332
 983.8800, -78.508
 983.8900, -85.542
 983.9000, -78.479
 983.9100, -77.318
 983.9200, -79.473
 983.9300, -84.086
 983.9400, -82.316
 983.9500, -82.025
 983.9600, -85.429
 983.9700, -78.904
 983.9800, -78.418
 983.9900, -79.435
 984.0000, -88.136
 984.0100, -81.003
 984.0200, -81.862
 984.0300, -79.250
 984.0400, -83.251
 984.0500,-210.000
 984.0600, -77.575
 984.0700, -80.222
 984.0800, -81.279
 984.0900, -78.731
 984.1000, -78.480
 984.1100, -81.349
 984.1200, -90.363
 984.1300, -86.005
 984.1400, -76.595
 984.1500, -79.915
 984.1600, -79.758
 984.1700, -77.745
 984.1800, -76.949
 984.1900, -91.907
 984.2000, -77.192
 984.2100, -78.134
 984.2200, -97.307
 984.2300, -77.056
 984.2400, -77.928
 984.2500, -85.026
 984.2600,-210.000
 984.2700, -78.880
 984.2800, -80.107
 984.2900, -80.033
 984.3000, -78.739
 984.3100, -80.473
 984.3200, -81.592
 984.3300, -76.698
 984.3400, -86.007
 984.3500, -91.388
 984.3600,-210.000
 984.3700, -80.306
 984.3800, -79.055
 984.3900, -92.547
 984.4000, -78.487
 984.4100, -77.694
 984.4200, -80.566
 984.4300, -83.740
 984.4400, -78.676
 984.4500, -80.811
 984.4600, -79.861
 984.4700, -79.495
 984.4800, -80.104
 984.4900, -81.586
 984.5000, -79.774
 984.5100, -78.461
 984.5200, -84.154
 984.5300, -82.856
 984.5400, -84.754
 984.5500, -78.461
 984.5600, -78.033
 984.5700,-210.000
 984.5800, -86.467
 984.5900, -79.709
 984.6000, -78.282
 984.6100, -75.553
 984.6200, -81.729
 984.6300,-210.000
 984.6400, -76.958
 984.6500, -79.125
 984.6600, -79.110
 984.6700, -81.466
 984.6800, -80.586
 984.6900, -81.619
 984.7000, -77.410
 984.7100,-210.000
 984.7200, -86.933
 984.7300, -81.630
 984.7400, -78.392
 984.7500, -79.039
 984.7600, -78.858
 984.7700, -78.951
 984.7800, -79.016
 984.7900, -77.801
 984.8000, -80.438
 984.8100, -80.193
 984.8200, -78.838
 984.8300, -78.057
 984.8400, -80.411
 984.8500, -84.805
 984.8600, -80.911
 984.8700, -82.369
 984.8800,-210.000
 984.8900, -78.376
 984.9000, -78.635
 984.9100, -85.327
 984.9200, -86.219
 984.9300, -83.414
 984.9400, -81.534
 984.9500, -83.928
 984.9600, -81.739
 984.9700, -77.341
 984.9800, -78.493
 984.9900, -79.663
 985.0000,-210.000
 985.0100, -78.823
 985.0200, -84.769
 985.0300, -79.192
 985.0400, -82.486
 985.0500, -80.586
 985.0600, -77.905
 985.0700, -79.007
 985.0800, -76.646
 985.0900, -80.856
 985.1000,-210.000
 985.1100, -81.948
 985.1200, -75.791
 985.1300, -79.364
 985.1400, -87.021
 985.1500, -80.321
 985.1600, -78.422
 985.1700, -78.866
 985.1800, -78.986
 985.1900, -78.533
 985.2000, -76.819
 985.2100, -76.435
 985.2200, -84.707
 985.2300, -79.721
 985.2400, -86.851
 985.2500, -79.640
 985.2600, -80.323
 985.2700, -82.517
 985.2800, -79.876
 985.2900, -78.699
 985.3000, -81.786
 985.3100,-210.000
 985.3200, -76.884
 985.3300, -78.205
 985.3400, -78.607
 985.3500, -78.269
 985.3600, -82.752
 985.3700,-210.000
 985.3800, -79.011
 985.3900, -78.169
 985.4000, -84.000
 985.4100, -79.331
 985.4200, -79.604
 985.4300, -80.568
 985.4400, -78.307
 985.4500, -79.764
 985.4600,-210.000
 985.4700, -80.592
 985.4800, -77.372
 985.4900, -76.665
 985.5000, -75.770
 985.5100, -76.900
 985.5200, -78.939
 985.5300, -78.428
 985.5400,-210.000
 985.5500, -80.625
 985.5600, -82.045
 985.5700, -83.727
 985.5800, -77.691
 985.5900, -79.620
 985.6000, -77.564
 985.6100, -79.214
 985.6200, -77.320
 985.6300, -82.020
 985.6400, -78.534
 985.6500, -85.108
 985.6600, -84.979
 985.6700, -79.816
 985.6800, -80.512
 985.6900, -80.145
 985.7000, -77.177
 985.7100,-210.000
 985.7200,-210.000
 985.7300, -94.496
 985.7400, -81.189
 985.7500,-210.000
 985.7600, -80.997
 985.7700, -79.104
 985.7800, -79.678
 985.7900, -83.406
 985.8000, -76.449
 985.8100, -83.143
 985.8200,-210.000
 985.8300, -82.620
 985.8400,-210.000
 985.8500, -77.169
 985.8600, -79.281
 985.8700, -79.183
 985.8800, -81.230
 985.8900, -88.098
 985.9000, -82.588
 985.9100, -79.120
 985.9200, -79.488
 985.9300, -82.521
 985.9400,-210.000
 985.9500, -79.450
 985.9600, -80.577
 985.9700, -79.490
 985.9800, -84.056
 985.9900,-210.000
 986.0000,-210.000
 986.0100, -78.835
 986.0200, -89.282
 986.0300, -80.235
 986.0400, -79.198
 986.0500, -78.711
 986.0600, -80.242
 986.0700, -82.490
 986.0800, -77.673
 986.0900, -77.876
 986.1000, -82.017
 986.1100,-210.000
 986.1200, -76.186
 986.1300, -80.438
 986.1400, -79.649
 986.1500, -79.636
 986.1600, -80.796
 986.1700, -81.057
 986.1800, -77.088
 986.1900, -81.520
 986.2000, -82.610
 986.2100,-210.000
 986.2200, -79.360
 986.2300, -79.496
 986.2400, -78.951
 986.2500, -79.575
 986.2600, -78.459
 986.2700, -80.805
 986.2800, -81.745
 986.2900, -77.837
 986.3000, -87.304
 986.3100, -89.911
 986.3200, -76.756
 986.3300, -80.480
 986.3400, -91.548
 986.3500, -78.200
 986.3600, -78.077
 986.3700, -81.186
 986.3800, -77.537
 986.3900, -77.424
 986.4000, -86.072
 986.4100, -78.366
 986.4200, -85.217
 986.4300, -78.368
 986.4400, -77.294
 986.4500, -77.528
 986.4600, -77.884
 986.4700, -80.388
 986.4800, -77.615
 986.4900, -81.647
 986.5000, -81.997
 986.5100, -85.024
 986.5200, -80.773
 986.5300, -81.439
 986.5400, -77.800
 986.5500, -77.983
 986.5600, -84.963
 986.5700, -78.183
 986.5800,-210.000
 986.5900, -79.975
 986.6000, -83.412
 986.6100, -80.275
 986.6200, -89.571
 986.6300, -78.303
 986.6400, -80.356
 986.6500, -79.681
 986.6600, -83.150
 986.6700, -81.357
 986.6800, -80.172
 986.6900, -84.774
 986.7000, -81.014
 986.7100, -80.873
 986.7200, -81.047
 986.7300, -83.023
 986.7400, -78.487
 986.7500, -78.039
 986.7600, -81.127
 986.7700, -79.268
 986.7800, -84.660
 986.7900, -85.732
 986.8000, -80.928
 986.8100, -80.188
 986.8200, -82.263
 986.8300, -83.902
 986.8400, -83.507
 986.8500, -86.099
 986.8600, -82.198
 986.8700, -77.686
 986.8800,-210.000
 986.8900, -81.229
 986.9000,-210.000
 986.9100, -79.516
 986.9200, -80.035
 986.9300, -78.100
 986.9400, -79.744
 986.9500, -77.377
 986.9600, -79.801
 986.9700, -77.838
 986.9800, -82.307
 986.9900, -81.299
 987.0000, -78.491
 987.0100, -78.209
 987.0200, -90.625
 987.0300, -85.446
 987.0400, -78.633
 987.0500, -78.381
 987.0600, -85.824
 987.0700, -76.001
 987.0800, -79.051
 987.0900, -77.903
 987.1000, -83.888
 987.1100, -78.748
 987.1200, -80.045
 987.1300, -79.176
 987.1400, -79.728
 987.1500, -81.138
 987.1600,-210.000
 987.1700, -81.820
 987.1800, -85.294
 987.1900, -79.360
 987.2000, -79.804
 987.2100, -76.907
 987.2200, -78.718
 987.2300, -79.059
 987.2400, -79.684
 987.2500, -81.071
 987.2600, -84.286
 987.2700, -80.928
 987.2800, -81.266
 987.2900, -77.594
 987.3000,-210.000
 987.3100, -78.353
 987.3200,-210.000
 987.3300, -79.445
 987.3400,-210.000
 987.3500, -79.817
 987.3600, -77.711
 987.3700, -80.441
 987.3800, -76.802
 987.3900, -86.726
 987.4000, -90.486
 987.4100, -81.198
 987.4200, -79.118
 987.4300, -82.475
 987.4400, -84.887
 987.4500, -78.727
 987.4600, -77.653
 987.4700, -79.960
 987.4800, -83.903
 987.4900, -81.055
 987.5000, -78.677
 987.5100, -83.199
 987.5200, -78.625
 987.5300, -78.536
 987.5400, -80.911
 987.5500, -80.836
 987.5600, -79.031
 987.5700, -82.423
 987.5800, -77.170
 987.5900, -79.131
 987.6000, -80.185
 987.6100, -81.418
 987.6200, -79.547
 987.6300,-210.000
 987.6400, -83.651
 987.6500, -80.724
 987.6600, -82.011
 987.6700, -82.296
 987.6800, -78.275
 987.6900, -81.641
 987.7000, -78.419
 987.7100, -76.781
 987.7200, -79.139
 987.7300, -80.380
 987.7400, -81.281
 987.7500, -80.652
 987.7600, -85.097
 987.7700, -76.731
 987.7800, -86.809
 987.7900, -81.569
 987.8000, -79.921
 987.8100, -77.157
 987.8200, -79.535
 987.8300, -79.493
 987.8400, -77.584
 987.8500, -76.129
 987.8600, -89.027
 987.8700, -79.888
 987.8800,-112.847
 987.8900, -82.762
 987.9000, -77.796
 987.9100, -78.788
 987.9200, -76.228
 987.9300, -76.158
 987.9400, -81.992
 987.9500, -81.911
 987.9600, -75.778
 987.9700, -84.495
 987.9800, -80.295
 987.9900, -88.595
 988.0000, -80.604
 988.0100, -76.844
 988.0200, -78.209
 988.0300, -78.243
 988.0400, -78.218
 988.0500, -82.375
 988.0600, -86.605
 988.0700, -83.888
 988.0800, -85.093
 988.0900,-210.000
 988.1000, -79.146
 988.1100, -80.158
 988.1200,-210.000
 988.1300, -77.636
 988.1400,-210.000
 988.1500,-210.000
 988.1600, -79.189
 988.1700, -78.754
 988.1800, -82.996
 988.1900, -83.231
 988.2000, -77.262
 988.2100, -82.217
 988.2200, -77.523
 988.2300, -86.663
 988.2400,-210.000
 988.2500, -84.961
 988.2600,-101.126
 988.2700, -81.539
 988.2800, -81.396
 988.2900, -78.691
 988.3000, -78.621
 988.3100, -86.244
 988.3200, -79.668
 988.3300, -79.720
 988.3400, -82.981
 988.3500, -78.745
 988.3600, -81.424
 988.3700, -86.649
 988.3800, -79.376
 988.3900, -81.190
 988.4000, -77.167
 988.4100, -85.898
 988.4200, -88.004
 988.4300, -81.869
 988.4400, -91.546
 988.4500, -77.249
 988.4600, -80.041
 988.4700,-210.000
 988.4800, -78.013
 988.4900, -80.474
 988.5000,-210.000
 988.5100,-210.000
 988.5200, -79.012
 988.5300, -80.196
 988.5400, -79.950
 988.5500, -82.267
 988.5600, -78.988
 988.5700, -79.482
 988.5800, -81.254
 988.5900,-210.000
 988.6000, -80.228
 988.6100, -80.352
 988.6200, -86.676
 988.6300,-210.000
 988.6400,-210.000
 988.6500, -98.251
 988.6600, -76.386
 988.6700, -81.815
 988.6800, -81.854
 988.6900,-210.000
 988.7000, -79.180
 988.7100, -80.283
 988.7200, -76.327
 988.7300,-210.000
 988.7400, -78.361
 988.7500, -81.430
 988.7600, -80.303
 988.7700, -77.687
 988.7800, -80.451
 988.7900, -82.063
 988.8000, -78.681
 988.8100, -80.473
 988.8200, -82.650
 988.8300, -81.746
 988.8400, -83.773
 988.8500, -80.237
 988.8600, -77.023
 988.8700,-210.000
 988.8800, -79.797
 988.8900, -80.887
 988.9000,-210.000
 988.9100, -81.276
 988.9200, -80.972
 988.9300, -84.999
 988.9400,-210.000
 988.9500, -78.158
 988.9600, -78.839
 988.9700, -78.228
 988.9800, -88.874
 988.9900, -78.752
 989.0000, -80.300
 989.0100, -82.350
 989.0200, -83.819
 989.0300, -79.835
 989.0400, -78.151
 989.0500, -79.836
 989.0600, -88.062
 989.0700, -80.158
 989.0800, -86.037
 989.0900, -80.602
 989.1000, -80.183
 989.1100, -78.533
 989.1200, -80.012
 989.1300, -78.659
 989.1400, -81.036
 989.1500, -79.295
 989.1600, -81.173
 989.1700, -78.592
 989.1800, -82.684
 989.1900, -79.319
 989.2000, -81.291
 989.2100, -90.591
 989.2200, -84.545
 989.2300, -78.176
 989.2400, -83.938
 989.2500, -78.943
 989.2600, -81.500
 989.2700, -79.839
 989.2800,-210.000
 989.2900,-210.000
 989.3000, -78.801
 989.3100, -82.953
 989.3200, -78.307
 989.3300, -80.644
 989.3400,-210.000
 989.3500, -83.746
 989.3600, -78.125
 989.3700, -82.335
 989.3800,-101.310
 989.3900, -78.455
 989.4000, -78.648
 989.4100, -81.184
 989.4200, -81.408
 989.4300, -85.630
 989.4400, -77.159
 989.4500,-210.000
 989.4600,-210.000
 989.4700, -88.917
 989.4800, -79.109
 989.4900,-210.000
 989.5000, -78.795
 989.5100, -88.096
 989.5200, -80.061
 989.5300, -79.167
 989.5400, -82.429
 989.5500, -78.074
 989.5600, -79.159
 989.5700, -75.464
 989.5800, -83.983
 989.5900,-210.000
 989.6000,-210.000
 989.6100, -78.487
 989.6200, -77.675
 989.6300, -82.474
 989.6400, -80.258
 989.6500, -86.435
 989.6600, -77.641
 989.6700, -77.054
 989.6800,-210.000
 989.6900, -78.661
 989.7000,-210.000
 989.7100, -79.751
 989.7200, -77.675
 989.7300, -80.872
 989.7400, -79.531
 989.7500, -96.763
 989.7600,-210.000
 989.7700, -79.502
 989.7800, -79.495
 989.7900, -89.703
 989.8000,-210.000
 989.8100, -81.387
 989.8200, -88.438
 989.8300, -77.677
 989.8400,-210.000
 989.8500, -79.547
 989.8600, -79.793
 989.8700, -78.358
 989.8800, -79.397
 989.8900, -80.232
 989.9000, -75.458
 989.9100, -76.120
 989.9200,-210.000
 989.9300, -80.155
 989.9400, -80.375
 989.9500, -77.768
 989.9600, -77.829
 989.9700, -97.434
 989.9800, -76.730
 989.9900, -79.886
 990.0000, -85.586
 990.0100,-210.000
 990.0200, -81.157
 990.0300, -86.496
 990.0400, -83.984
 990.0500, -81.723
 990.0600, -81.150
 990.0700, -80.416
 990.0800,-210.000
 990.0900, -86.524
 990.1000, -77.392
 990.1100, -83.079
 990.1200, -85.311
 990.1300, -99.258
 990.1400, -79.250
 990.1500, -79.583
 990.1600, -77.406
 990.1700,-210.000
 990.1800, -82.769
 990.1900,-210.000
 990.2000, -78.028
 990.2100, -80.307
 990.2200, -79.171
 990.2300, -80.533
 990.2400, -80.565
 990.2500,-210.000
 990.2600, -78.812
 990.2700, -78.075
 990.2800, -86.311
 990.2900, -79.907
 990.3000, -78.001
 990.3100,-210.000
 990.3200,-210.000
 990.3300, -78.263
 990.3400, -89.597
 990.3500, -81.656
 990.3600, -79.053
 990.3700, -78.284
 990.3800,-210.000
 990.3900,-210.000
 990.4000, -83.557
 990.4100,-210.000
 990.4200, -82.005
 990.4300, -81.874
 990.4400, -79.972
 990.4500,-210.000
 990.4600, -79.917
 990.4700, -80.536
 990.4800, -82.824
 990.4900, -78.891
 990.5000, -82.650
 990.5100,-210.000
 990.5200, -80.975
 990.5300,-210.000
 990.5400, -75.744
 990.5500, -75.594
 990.5600, -79.724
 990.5700, -80.802
 990.5800, -79.398
 990.5900, -78.355
 990.6000, -81.249
 990.6100,-210.000
 990.6200, -78.323
 990.6300, -81.604
 990.6400, -80.749
 990.6500, -82.854
 990.6600, -90.239
 990.6700, -78.167
 990.6800, -78.505
 990.6900, -77.904
 990.7000, -82.461
 990.7100,-210.000
 990.7200, -79.654
 990.7300, -80.135
 990.7400, -77.425
 990.7500,-210.000
 990.7600, -79.599
 990.7700, -80.044
 990.7800, -90.376
 990.7900, -80.747
 990.8000, -83.560
 990.8100, -79.326
 990.8200, -80.228
 990.8300,-210.000
 990.8400, -95.423
 990.8500, -83.507
 990.8600, -79.283
 990.8700, -78.369
 990.8800, -82.134
 990.8900, -77.763
 990.9000, -78.961
 990.9100, -81.713
 990.9200, -80.552
 990.9300, -80.610
 990.9400, -78.360
 990.9500, -81.225
 990.9600, -80.948
 990.9700, -82.792
 990.9800, -84.881
 990.9900, -77.701
 991.0000,-210.000
 991.0100, -79.801
 991.0200, -79.208
 991.0300, -79.640
 991.0400, -79.103
 991.0500, -78.368
 991.0600, -91.370
 991.0700, -96.439
 991.0800, -82.722
 991.0900,-210.000
 991.1000, -80.805
 991.1100, -77.889
 991.1200,-210.000
 991.1300, -83.815
 991.1400, -76.914
 991.1500, -77.700
 991.1600, -78.465
 991.1700, -83.390
 991.1800, -80.076
 991.1900, -82.321
 991.2000, -78.399
 991.2100, -81.746
 991.2200, -77.721
 991.2300, -80.634
 991.2400, -82.713
 991.2500, -86.489
 991.2600, -78.561
 991.2700, -80.466
 991.2800, -80.200
 991.2900, -77.922
 991.3000, -76.994
 991.3100, -82.982
 991.3200,-210.000
 991.3300, -82.785
 991.3400, -77.675
 991.3500,-210.000
 991.3600, -82.684
 991.3700, -80.794
 991.3800, -80.397
 991.3900, -75.423
 991.4000, -86.400
 991.4100, -77.311
 991.4200, -79.555
 991.4300, -78.699
 991.4400, -80.180
 991.4500, -92.110
 991.4600,-210.000
 991.4700, -80.018
 991.4800, -78.496
 991.4900, -78.188
 991.5000, -82.659
 991.5100, -78.201
 991.5200, -79.394
 991.5300, -80.829
 991.5400, -91.273
 991.5500,-210.000
 991.5600, -80.038
 991.5700, -81.154
 991.5800, -81.579
 991.5900, -80.657
 991.6000, -81.211
 991.6100,-100.989
 991.6200, -81.283
 991.6300, -90.026
 991.6400,-210.000
 991.6500, -78.845
 991.6600, -78.492
 991.6700, -83.018
 991.6800, -80.160
 991.6900, -80.132
 991.7000, -77.553
 991.7100, -83.287
 991.7200,-210.000
 991.7300, -77.561
 991.7400, -79.252
 991.7500, -80.160
 991.7600, -79.619
 991.7700, -80.931
 991.7800, -92.683
 991.7900,-210.000
 991.8000, -75.697
 991.8100, -79.386
 991.8200, -78.454
 991.8300, -81.460
 991.8400,-210.000
 991.8500,-210.000
 991.8600, -79.960
 991.8700, -77.841
 991.8800, -82.889
 991.8900, -87.430
 991.9000, -82.451
 991.9100, -79.988
 991.9200, -78.363
 991.9300, -76.671
 991.9400, -77.585
 991.9500, -80.947
 991.9600, -76.931
 991.9700, -79.443
 991.9800, -81.216
 991.9900, -82.994
 992.0000, -87.352
 992.0100,-103.433
 992.0200, -79.447
 992.0300, -79.605
 992.0400, -80.893
 992.0500, -81.624
 992.0600, -81.459
 992.0700, -79.737
 992.0800, -81.963
 992.0900, -78.233
 992.1000, -79.445
 992.1100, -88.238
 992.1200, -78.507
 992.1300, -77.151
 992.1400,-210.000
 992.1500, -82.271
 992.1600, -82.369
 992.1700, -81.389
 992.1800, -80.275
 992.1900, -80.824
 992.2000, -82.359
 992.2100, -78.040
 992.2200, -80.216
 992.2300, -79.623
 992.2400, -77.701
 992.2500, -78.595
 992.2600, -79.258
 992.2700, -81.952
 992.2800, -77.867
 992.2900, -80.068
 992.3000, -79.503
 992.3100, -82.940
 992.3200, -81.021
 992.3300, -94.278
 992.3400, -81.757
 992.3500, -78.906
 992.3600, -79.380
 992.3700, -80.249
 992.3800,-210.000
 992.3900, -81.939
 992.4000, -76.719
 992.4100, -78.689
 992.4200, -83.139
 992.4300,-210.000
 992.4400, -77.481
 992.4500, -91.202
 992.4600, -81.066
 992.4700,-210.000
 992.4800, -79.801
 992.4900, -78.817
 992.5000, -79.869
 992.5100,-210.000
 992.5200, -84.752
 992.5300, -81.021
 992.5400, -79.184
 992.5500, -80.976
 992.5600,-210.000
 992.5700, -80.406
 992.5800, -79.062
 992.5900, -79.253
 992.6000, -90.037
 992.6100, -85.135
 992.6200, -79.351
 992.6300, -84.768
 992.6400, -77.769
 992.6500, -88.385
 992.6600, -79.066
 992.6700,-210.000
 992.6800, -77.838
 992.6900, -78.619
 992.7000, -83.043
 992.7100, -79.608
 992.7200, -85.149
 992.7300,-210.000
 992.7400, -79.323
 992.7500, -79.207
 992.7600, -84.338
 992.7700, -77.518
 992.7800,-210.000
 992.7900,-210.000
 992.8000, -82.075
 992.8100, -78.881
 992.8200, -89.354
 992.8300, -82.784
 992.8400, -80.457
 992.8500, -79.929
 992.8600, -91.193
 992.8700, -83.444
 992.8800,-210.000
 992.8900,-210.000
 992.9000, -77.745
 992.9100, -79.564
 992.9200, -80.385
 992.9300, -80.042
 992.9400, -83.840
 992.9500,-210.000
 992.9600, -77.452
 992.9700, -77.661
 992.9800, -79.147
 992.9900, -78.476
 993.0000, -76.705
 993.0100, -79.449
 993.0200, -75.691
 993.0300, -83.692
 993.0400,-210.000
 993.0500, -84.669
 993.0600, -79.697
 993.0700, -77.295
 993.0800, -79.078
 993.0900, -85.900
 993.1000, -84.180
 993.1100, -82.232
 993.1200, -88.180
 993.1300, -80.236
 993.1400, -83.670
 993.1500, -81.540
 993.1600, -94.777
 993.1700, -80.370
 993.1800,-210.000
 993.1900, -75.426
 993.2000, -80.222
 993.2100,-101.029
 993.2200, -78.527
 993.2300, -81.075
 993.2400, -80.211
 993.2500, -85.117
 993.2600, -78.389
 993.2700, -78.747
 993.2800, -78.212
 993.2900, -81.072
 993.3000, -82.197
 993.3100,-210.000
 993.3200, -77.696
 993.3300, -80.460
 993.3400, -82.498
 993.3500, -80.201
 993.3600, -95.623
 993.3700, -78.293
 993.3800, -79.824
 993.3900, -82.580
 993.4000, -90.584
 993.4100, -80.594
 993.4200, -90.751
 993.4300, -76.753
 993.4400, -76.932
 993.4500, -79.051
 993.4600,-210.000
 993.4700, -77.312
 993.4800, -80.924
 993.4900, -77.412
 993.5000, -77.684
 993.5100, -80.241
 993.5200,-210.000
 993.5300, -78.681
 993.5400, -84.394
 993.5500, -87.123
 993.5600, -86.039
 993.5700, -78.313
 993.5800, -79.226
 993.5900, -80.936
 993.6000, -80.483
 993.6100, -82.087
 993.6200, -78.487
 993.6300, -79.855
 993.6400, -81.369
 993.6500, -76.856
 993.6600, -78.999
 993.6700, -79.982
 993.6800, -77.613
 993.6900, -76.068
 993.7000, -77.364
 993.7100,-210.000
 993.7200, -79.936
 993.7300,-210.000
 993.7400, -78.246
 993.7500, -82.383
 993.7600, -80.646
 993.7700, -84.685
 993.7800,-210.000
 993.7900, -76.542
 993.8000, -77.978
 993.8100, -82.881
 993.8200, -83.916
 993.8300, -79.122
 993.8400, -81.242
 993.8500, -77.699
 993.8600, -84.535
 993.8700, -82.660
 993.8800, -83.828
 993.8900, -80.167
 993.9000, -80.281
 993.9100, -85.485
 993.9200, -78.340
 993.9300, -81.670
 993.9400, -80.547
 993.9500, -80.463
 993.9600, -77.175
 993.9700, -76.240
 993.9800, -81.820
 993.9900, -80.325
 994.0000, -87.775
 994.0100, -77.841
 994.0200, -81.210
 994.0300, -77.391
 994.0400, -83.323
 994.0500, -78.345
 994.0600, -80.545
 994.0700, -80.791
 994.0800, -77.205
 994.0900, -83.630
 994.1000,-210.000
 994.1100, -82.649
 994.1200, -77.340
 994.1300, -79.152
 994.1400, -79.707
 994.1500, -81.315
 994.1600, -76.893
 994.1700, -90.226
 994.1800, -82.987
 994.1900, -80.084
 994.2000, -78.079
 994.2100, -92.331
 994.2200, -77.930
 994.2300, -84.033
 994.2400, -81.103
 994.2500, -79.208
 994.2600,-210.000
 994.2700, -89.556
 994.2800, -80.752
 994.2900, -78.765
 994.3000,-210.000
 994.3100, -84.181
 994.3200, -81.977
 994.3300, -80.661
 994.3400, -81.904
 994.3500, -79.040
 994.3600, -79.172
 994.3700, -76.647
 994.3800, -80.215
 994.3900, -80.455
 994.4000, -80.132
 994.4100, -78.446
 994.4200, -76.041
 994.4300, -78.970
 994.4400,-210.000
 994.4500, -80.639
 994.4600, -76.651
 994.4700, -78.283
 994.4800, -86.353
 994.4900, -82.853
 994.5000, -82.307
 994.5100, -79.175
 994.5200, -79.058
 994.5300, -77.373
 994.5400, -81.485
 994.5500, -81.213
 994.5600, -81.714
 994.5700, -79.955
 994.5800, -78.435
 994.5900, -84.014
 994.6000, -83.803
 994.6100, -91.661
 994.6200, -80.735
 994.6300, -82.399
 994.6400, -78.617
 994.6500, -80.895
 994.6600, -76.254
 994.6700, -79.224
 994.6800, -78.139
 994.6900, -78.625
 994.7000, -79.758
 994.7100, -79.657
 994.7200, -81.801
 994.7300,-210.000
 994.7400, -80.438
 994.7500, -76.428
 994.7600, -85.277
 994.7700, -76.847
 994.7800, -77.788
 994.7900, -80.984
 994.8000, -80.312
 994.8100, -79.278
 994.8200, -78.971
 994.8300, -75.725
 994.8400, -82.930
 994.8500, -78.507
 994.8600, -79.330
 994.8700, -84.494
 994.8800, -78.953
 994.8900, -78.605
 994.9000,-210.000
 994.9100, -84.421
 994.9200, -79.789
 994.9300, -81.569
 994.9400, -81.789
 994.9500, -77.446
 994.9600, -77.477
 994.9700, -81.815
 994.9800, -79.291
 994.9900, -81.494
 995.0000, -89.985
 995.0100, -77.978
 995.0200,-210.000
 995.0300, -82.973
 995.0400, -82.555
 995.0500, -79.377
 995.0600, -80.780
 995.0700, -76.603
 995.0800, -78.361
 995.0900, -79.705
 995.1000,-108.985
 995.1100, -77.436
 995.1200, -81.703
 995.1300, -78.528
 995.1400, -80.344
 995.1500,-210.000
 995.1600, -82.996
 995.1700, -83.975
 995.1800, -78.781
 995.1900, -82.224
 995.2000, -80.248
 995.2100, -82.944
 995.2200, -86.759
 995.2300, -78.881
 995.2400, -80.000
 995.2500, -78.980
 995.2600, -78.580
 995.2700, -78.440
 995.2800, -85.614
 995.2900,-210.000
 995.3000, -84.444
 995.3100, -79.891
 995.3200, -77.597
 995.3300, -95.622
 995.3400, -81.003
 995.3500, -80.955
 995.3600, -83.306
 995.3700,-210.000
 995.3800, -88.588
 995.3900, -79.864
 995.4000, -78.288
 995.4100, -77.761
 995.4200, -79.905
 995.4300, -78.423
 995.4400, -77.706
 995.4500, -79.996
 995.4600, -80.349
 995.4700,-210.000
 995.4800, -82.240
 995.4900, -83.366
 995.5000, -80.168
 995.5100, -86.094
 995.5200, -78.512
 995.5300, -87.485
 995.5400,-210.000
 995.5500, -82.500
 995.5600, -84.073
 995.5700, -80.211
 995.5800, -79.930
 995.5900, -78.381
 995.6000,-210.000
 995.6100, -92.766
 995.6200, -78.981
 995.6300,-210.000
 995.6400, -77.571
 995.6500, -78.885
 995.6600, -80.817
 995.6700, -85.000
 995.6800, -79.702
 995.6900, -79.304
 995.7000, -77.780
 995.7100, -78.842
 995.7200, -79.983
 995.7300, -78.063
 995.7400,-210.000
 995.7500, -81.572
 995.7600, -91.459
 995.7700, -81.929
 995.7800, -78.056
 995.7900, -81.205
 995.8000, -82.264
 995.8100, -78.671
 995.8200, -88.283
 995.8300, -83.400
 995.8400, -78.934
 995.8500, -77.586
 995.8600,-210.000
 995.8700, -78.612
 995.8800, -79.726
 995.8900, -83.971
 995.9000, -79.330
 995.9100, -78.585
 995.9200, -77.394
 995.9300, -79.169
 995.9400, -78.163
 995.9500, -78.740
 995.9600, -79.473
 995.9700, -78.706
 995.9800,-210.000
 995.9900, -79.184
 996.0000, -81.086
 996.0100,-210.000
 996.0200, -79.221
 996.0300, -79.900
 996.0400, -80.768
 996.0500, -82.986
 996.0600, -78.011
 996.0700, -79.430
 996.0800, -85.629
 996.0900, -81.571
 996.1000, -81.011
 996.1100, -89.047
 996.1200,-210.000
 996.1300, -77.547
 996.1400, -79.422
 996.1500, -80.379
 996.1600, -89.307
 996.1700, -78.660
 996.1800, -76.447
 996.1900, -79.941
 996.2000,-210.000
 996.2100, -77.616
 996.2200, -82.305
 996.2300, -78.288
 996.2400, -88.143
 996.2500, -89.727
 996.2600, -81.949
 996.2700,-210.000
 996.2800, -84.258
 996.2900,-210.000
 996.3000, -79.770
 996.3100, -83.237
 996.3200, -78.305
 996.3300,-210.000
 996.3400, -78.622
 996.3500, -80.305
 996.3600, -80.269
 996.3700, -81.008
 996.3800, -79.900
 996.3900, -79.546
 996.4000, -77.269
 996.4100, -80.488
 996.4200, -77.155
 996.4300, -79.333
 996.4400, -85.594
 996.4500, -78.193
 996.4600, -81.767
 996.4700,-210.000
 996.4800, -80.366
 996.4900, -80.114
 996.5000, -82.805
 996.5100, -86.869
 996.5200, -82.127
 996.5300, -79.285
 996.5400, -80.577
 996.5500, -77.100
 996.5600, -80.315
 996.5700, -77.968
 996.5800, -79.793
 996.5900, -91.804
 996.6000, -82.743
 996.6100, -78.545
 996.6200, -78.506
 996.6300, -80.529
 996.6400, -77.503
 996.6500, -76.580
 996.6600, -85.673
 996.6700, -78.039
 996.6800, -81.049
 996.6900, -81.058
 996.7000, -78.151
 996.7100, -80.817
 996.7200, -79.074
 996.7300, -96.392
 996.7400, -79.774
 996.7500, -77.084
 996.7600, -79.091
 996.7700, -82.473
 996.7800, -81.331
 996.7900, -77.510
 996.8000, -82.589
 996.8100, -83.736
 996.8200,-210.000
 996.8300, -78.508
 996.8400, -82.219
 996.8500, -78.913
 996.8600, -80.844
 996.8700, -80.020
 996.8800, -79.761
 996.8900, -82.729
 996.9000, -78.543
 996.9100, -85.501
 996.9200, -79.514
 996.9300,-210.000
 996.9400,-210.000
 996.9500, -85.235
 996.9600, -79.291
 996.9700, -80.346
 996.9800, -87.718
 996.9900, -84.640
 997.0000, -79.297
 997.0100, -85.044
 997.0200, -82.491
 997.0300, -95.699
 997.0400,-210.000
 997.0500, -78.239
 997.0600, -82.396
 997.0700, -79.007
 997.0800, -78.066
 997.0900, -79.476
 997.1000, -78.001
 997.1100, -81.769
 997.1200, -79.281
 997.1300, -79.953
 997.1400, -77.527
 997.1500, -82.542
 997.1600, -82.090
 997.1700, -77.924
 997.1800, -82.205
 997.1900, -77.192
 997.2000, -76.649
 997.2100,-210.000
 997.2200,-210.000
 997.2300, -80.909
 997.2400, -77.431
 997.2500, -85.019
 997.2600, -87.218
 997.2700, -81.876
 997.2800, -76.343
 997.2900, -80.347
 997.3000, -78.236
 997.3100, -81.452
 997.3200, -81.879
 997.3300, -82.415
 997.3400, -79.365
 997.3500, -77.571
 997.3600, -76.273
 997.3700, -79.112
 997.3800, -79.908
 997.3900, -83.253
 997.4000, -79.957
 997.4100, -86.385
 997.4200, -85.610
 997.4300, -77.662
 997.4400,-210.000
 997.4500, -81.643
 997.4600, -77.683
 997.4700, -77.453
 997.4800, -80.189
 997.4900, -81.330
 997.5000, -84.993
 997.5100,-210.000
 997.5200, -79.545
 997.5300, -83.431
 997.5400, -78.241
 997.5500, -83.828
 997.5600, -78.357
 997.5700, -80.047
 997.5800, -84.016
 997.5900, -78.828
 997.6000, -79.353
 997.6100, -87.059
 997.6200, -78.510
 997.6300, -77.629
 997.6400, -80.962
 997.6500, -80.016
 997.6600, -78.549
 997.6700, -78.982
 997.6800,-210.000
 997.6900, -81.124
 997.7000, -86.177
 997.7100, -81.105
 997.7200, -82.501
 997.7300, -79.771
 997.7400, -78.745
 997.7500,-210.000
 997.7600,-210.000
 997.7700, -78.523
 997.7800, -81.008
 997.7900, -86.446
 997.8000, -81.903
 997.8100, -79.369
 997.8200, -82.709
 997.8300, -79.376
 997.8400, -80.451
 997.8500, -77.646
 997.8600,-210.000
 997.8700, -79.616
 997.8800, -78.145
 997.8900, -80.795
 997.9000, -79.742
 997.9100, -84.268
 997.9200,-210.000
 997.9300,-210.000
 997.9400, -80.148
 997.9500,-210.000
 997.9600, -76.548
 997.9700, -78.998
 997.9800, -77.866
 997.9900, -78.222
 998.0000, -77.387
 998.0100, -79.097
 998.0200, -79.564
 998.0300, -84.722
 998.0400, -81.016
 998.0500, -77.792
 998.0600,-210.000
 998.0700, -76.095
 998.0800, -81.466
 998.0900, -76.868
 998.1000, -81.005
 998.1100, -84.466
 998.1200, -79.069
 998.1300, -86.634
 998.1400, -93.190
 998.1500, -81.299
 998.1600, -80.329
 998.1700, -80.396
 998.1800, -82.181
 998.1900, -83.836
 998.2000,-210.000
 998.2100, -78.163
 998.2200, -78.324
 998.2300, -81.190
 998.2400, -76.307
 998.2500, -80.874
 998.2600, -77.508
 998.2700, -79.655
 998.2800, -83.566
 998.2900, -81.365
 998.3000, -78.924
 998.3100, -80.390
 998.3200, -80.598
 998.3300, -81.243
 998.3400, -79.523
 998.3500, -85.914
 998.3600, -79.310
 998.3700, -79.073
 998.3800, -79.056
 998.3900,-210.000
 998.4000, -78.697
 998.4100, -77.226
 998.4200, -82.750
 998.4300, -78.219
 998.4400, -77.455
 998.4500, -79.250
 998.4600, -83.307
 998.4700, -79.121
 998.4800, -83.591
 998.4900, -76.084
 998.5000, -84.040
 998.5100, -80.331
 998.5200, -77.816
 998.5300,-210.000
 998.5400, -81.766
 998.5500, -79.490
 998.5600, -79.698
 998.5700, -80.558
 998.5800, -79.534
 998.5900, -80.105
 998.6000, -78.549
 998.6100, -83.515
 998.6200, -86.182
 998.6300, -80.942
 998.6400, -80.774
 998.6500, -76.725
 998.6600, -80.192
 998.6700, -78.593
 998.6800, -81.465
 998.6900, -85.229
 998.7000, -75.127
 998.7100, -77.470
 998.7200, -79.550
 998.7300, -82.316
 998.7400, -78.727
 998.7500, -81.815
 998.7600,-101.122
 998.7700, -85.352
 998.7800, -82.190
 998.7900, -80.797
 998.8000, -80.577
 998.8100, -81.116
 998.8200, -79.818
 998.8300, -80.471
 998.8400, -78.789
 998.8500,-210.000
 998.8600,-210.000
 998.8700, -77.594
 998.8800, -79.920
 998.8900, -79.224
 998.9000, -78.072
 998.9100, -78.659
 998.9200, -77.124
 998.9300, -83.167
 998.9400, -80.631
 998.9500, -86.383
 998.9600, -85.466
 998.9700, -78.095
 998.9800, -78.463
 998.9900, -79.146
 999.0000,-210.000
 999.0100, -80.876
 999.0200, -78.394
 999.0300, -97.888
 999.0400, -83.383
 999.0500, -83.529
 999.0600, -78.240
 999.0700, -76.718
 999.0800, -84.020
 999.0900,-210.000
 999.1000, -82.846
 999.1100, -81.759
 999.1200, -85.568
 999.1300, -79.845
 999.1400, -77.961
 999.1500, -77.774
 999.1600, -84.243
 999.1700, -77.262
 999.1800, -78.632
 999.1900, -78.407
 999.2000, -78.471
 999.2100, -79.454
 999.2200, -78.485
 999.2300, -82.017
 999.2400, -83.874
 999.2500, -85.905
 999.2600, -79.211
 999.2700, -78.519
 999.2800,-210.000
 999.2900, -86.621
 999.3000, -80.540
 999.3100, -80.329
 999.3200, -78.379
 999.3300, -76.115
 999.3400, -80.991
 999.3500,-210.000
 999.3600, -89.104
 999.3700, -77.759
 999.3800,-210.000
 999.3900, -76.560
 999.4000, -79.211
 999.4100, -80.057
 999.4200, -81.611
 999.4300, -84.512
 999.4400, -86.755
 999.4500, -88.018
 999.4600, -79.183
 999.4700, -77.831
 999.4800, -79.653
 999.4900, -85.945
 999.5000,-210.000
 999.5100, -82.065
 999.5200, -82.236
 999.5300, -79.716
 999.5400, -85.061
 999.5500, -78.744
 999.5600, -82.088
 999.5700,-210.000
 999.5800, -78.650
 999.5900, -81.753
 999.6000, -78.555
 999.6100, -81.144
 999.6200, -79.437
 999.6300,-210.000
 999.6400, -81.255
 999.6500, -81.443
 999.6600, -89.667
 999.6700, -81.999
 999.6800, -77.934
 999.6900, -78.338
 999.7000, -82.960
 999.7100, -80.493
 999.7200, -77.867
 999.7300, -79.243
 999.7400, -78.907
 999.7500, -85.048
 999.7600, -79.435
 999.7700, -76.798
 999.7800, -82.180
 999.7900,-210.000
 999.8000, -81.316
 999.8100, -82.364
 999.8200,-210.000
 999.8300, -96.569
 999.8400, -91.235
 999.8500, -83.679
 999.8600, -86.790
 999.8700, -92.050
 999.8800, -78.555
 999.8900, -80.830
 999.9000, -78.583
 999.9100, -83.130
 999.9200,-210.000
 999.9300, -83.003
 999.9400, -79.833
 999.9500, -80.364
 999.9600, -80.283
 999.9700,-210.000
 999.9800, -82.355
 999.9900, -80.387
1000.0000, -83.213
1000.0100, -81.276
1000.0200, -79.689
1000.0300, -77.545
1000.0400, -82.863
1000.0500,-210.000
1000.0600, -79.646
1000.0700, -79.223
1000.0800, -80.530
1000.0900, -83.280
1000.1000, -78.043
1000.1100, -77.720
1000.1200, -85.770
1000.1300, -77.914
1000.1400, -83.782
1000.1500,-210.000
1000.1600, -76.791
1000.1700, -81.373
1000.1800,-210.000
1000.1900, -79.956
1000.2000,-210.000
1000.2100,-210.000
1000.2200, -76.677
1000.2300, -78.697
1000.2400, -82.818
1000.2500, -79.565
1000.2600, -82.110
1000.2700, -79.474
1000.2800, -86.231
1000.2900,-210.000
1000.3000,-210.000
1000.3100, -78.781
1000.3200, -78.178
1000.3300, -79.154
1000.3400, -77.913
1000.3500,-210.000
1000.3600, -85.772
1000.3700, -86.315
1000.3800,-210.000
1000.3900, -78.340
1000.4000, -79.097
1000.4100, -79.425
1000.4200, -76.946
1000.4300, -77.522
1000.4400, -78.680
1000.4500, -82.141
1000.4600, -78.492
1000.4700, -80.156
1000.4800, -82.290
1000.4900, -77.044
1000.5000, -78.871
1000.5100,-210.000
1000.5200, -76.343
1000.5300, -80.186
1000.5400, -77.294
1000.5500, -76.405
1000.5600, -81.684
1000.5700, -78.560
1000.5800, -78.513
1000.5900, -82.600
1000.6000, -76.676
1000.6100, -80.302
1000.6200,-210.000
1000.6300, -79.843
1000.6400, -77.129
1000.6500, -81.483
1000.6600, -81.522
1000.6700,-210.000
1000.6800, -83.281
1000.6900, -85.408
1000.7000, -77.104
1000.7100, -82.222
1000.7200, -84.615
1000.7300, -77.976
1000.7400, -84.030
1000.7500,-210.000
1000.7600, -80.323
1000.7700,-210.000
1000.7800, -78.346
1000.7900, -80.580
1000.8000, -78.328
1000.8100, -83.946
1000.8200, -79.539
1000.8300,-210.000
1000.8400, -79.991
1000.8500, -78.655
1000.8600, -89.515
1000.8700, -80.708
1000.8800, -77.560
1000.8900, -78.893
1000.9000, -78.635
1000.9100, -82.758
1000.9200, -78.434
1000.9300, -79.725
1000.9400, -82.751
1000.9500, -91.493
1000.9600,-210.000
1000.9700, -83.490
1000.9800, -78.586
1000.9900, -82.862
1001.0000, -77.873
