73CSV  	
// AQ6373B OPTICAL SPECTRUM ANALYZER //                 
35
"CTRWL", 976.000000
"SPAN",  50.000000
"START WL", 951.000000
"STOP WL",1001.000000
"WLFREQ", 0
"REFL",-37.5
"LSCL",10.0
"RESLN",0.050
"AVG",   1
"SMPLAUTO",      1
"SMPL",       5001
"SMPLINTVL",0.0100
"HIGH1"
"MEAS"
"LSUNT",0
"NMSKH","OFF"
"RESCOR",0
"SMOOTH",0
"MEASWL",0
"SWPSPD",0
"CHGPT",          0
"RESCAL0_0",       9389
"RESCAL0_1",        538
"RESCAL0_2",    -340913
"RESCAL1_0",       9652
"RESCAL1_1",         64
"RESCAL1_2",     -41039
"CORESIZE", 0







"[TRACE DATA]"
 951.0000, -81.418
 951.0100, -82.591
 951.0200, -83.389
 951.0300,-210.000
 951.0400, -78.861
 951.0500, -77.296
 951.0600, -81.408
 951.0700,-210.000
 951.0800,-210.000
 951.0900, -84.901
 951.1000, -78.231
 951.1100,-210.000
 951.1200, -77.037
 951.1300,-210.000
 951.1400,-210.000
 951.1500, -78.859
 951.1600, -76.378
 951.1700, -80.549
 951.1800, -78.881
 951.1900, -79.021
 951.2000, -84.238
 951.2100, -83.877
 951.2200, -81.145
 951.2300, -80.264
 951.2400,-210.000
 951.2500,-210.000
 951.2600, -76.608
 951.2700, -85.961
 951.2800, -83.251
 951.2900, -83.062
 951.3000, -76.949
 951.3100, -80.128
 951.3200,-210.000
 951.3300, -77.163
 951.3400, -79.007
 951.3500, -81.706
 951.3600, -83.143
 951.3700, -78.025
 951.3800, -80.165
 951.3900, -80.439
 951.4000,-210.000
 951.4100, -86.156
 951.4200, -76.237
 951.4300, -78.598
 951.4400,-210.000
 951.4500, -85.238
 951.4600, -81.858
 951.4700, -85.937
 951.4800, -79.164
 951.4900, -81.056
 951.5000, -78.834
 951.5100, -80.261
 951.5200,-210.000
 951.5300, -87.784
 951.5400, -82.120
 951.5500, -83.648
 951.5600, -76.518
 951.5700,-210.000
 951.5800, -83.444
 951.5900, -80.350
 951.6000, -77.832
 951.6100, -77.455
 951.6200, -82.221
 951.6300, -77.515
 951.6400, -75.621
 951.6500,-210.000
 951.6600, -79.804
 951.6700, -81.665
 951.6800, -79.548
 951.6900, -81.568
 951.7000, -83.897
 951.7100,-210.000
 951.7200, -79.708
 951.7300, -78.419
 951.7400, -82.585
 951.7500, -93.107
 951.7600, -77.822
 951.7700, -78.814
 951.7800, -76.518
 951.7900, -77.289
 951.8000, -86.945
 951.8100, -82.805
 951.8200, -77.388
 951.8300, -81.202
 951.8400,-210.000
 951.8500, -81.206
 951.8600, -78.881
 951.8700,-210.000
 951.8800, -77.249
 951.8900, -76.248
 951.9000, -77.943
 951.9100, -85.084
 951.9200,-210.000
 951.9300, -81.119
 951.9400, -80.284
 951.9500, -76.573
 951.9600, -82.725
 951.9700,-210.000
 951.9800,-210.000
 951.9900, -86.859
 952.0000,-210.000
 952.0100, -80.420
 952.0200, -83.252
 952.0300, -86.538
 952.0400, -78.629
 952.0500, -77.324
 952.0600, -77.735
 952.0700, -98.981
 952.0800, -82.770
 952.0900, -77.885
 952.1000, -82.350
 952.1100, -81.226
 952.1200, -77.582
 952.1300, -77.484
 952.1400, -80.912
 952.1500, -83.384
 952.1600, -83.120
 952.1700, -76.237
 952.1800, -84.013
 952.1900, -80.797
 952.2000, -80.954
 952.2100, -82.767
 952.2200, -91.037
 952.2300, -76.037
 952.2400, -99.194
 952.2500, -78.394
 952.2600, -85.836
 952.2700, -77.151
 952.2800, -86.476
 952.2900, -81.287
 952.3000, -80.199
 952.3100, -78.462
 952.3200, -81.638
 952.3300, -77.933
 952.3400, -85.924
 952.3500, -78.978
 952.3600, -77.678
 952.3700, -78.500
 952.3800, -80.513
 952.3900, -79.369
 952.4000, -79.305
 952.4100, -79.693
 952.4200, -77.125
 952.4300,-210.000
 952.4400, -82.558
 952.4500, -77.524
 952.4600,-210.000
 952.4700, -80.010
 952.4800, -83.502
 952.4900, -82.407
 952.5000, -82.112
 952.5100, -81.806
 952.5200, -79.815
 952.5300, -81.692
 952.5400, -81.243
 952.5500, -80.161
 952.5600, -77.681
 952.5700, -79.300
 952.5800, -79.191
 952.5900, -79.105
 952.6000, -88.851
 952.6100,-210.000
 952.6200, -78.093
 952.6300, -82.054
 952.6400, -81.068
 952.6500, -78.300
 952.6600, -79.349
 952.6700,-210.000
 952.6800, -80.556
 952.6900, -79.708
 952.7000, -77.625
 952.7100, -79.540
 952.7200,-210.000
 952.7300, -87.646
 952.7400, -81.275
 952.7500, -78.870
 952.7600, -79.347
 952.7700, -78.317
 952.7800, -80.858
 952.7900, -77.405
 952.8000, -82.268
 952.8100, -77.138
 952.8200, -78.907
 952.8300, -80.656
 952.8400, -82.527
 952.8500,-210.000
 952.8600, -77.283
 952.8700, -75.460
 952.8800, -84.573
 952.8900, -80.607
 952.9000, -82.322
 952.9100, -77.881
 952.9200, -78.235
 952.9300, -78.869
 952.9400, -82.997
 952.9500, -80.375
 952.9600, -82.037
 952.9700, -77.239
 952.9800,-210.000
 952.9900, -80.773
 953.0000, -81.701
 953.0100, -79.328
 953.0200, -78.849
 953.0300, -81.335
 953.0400, -82.362
 953.0500,-210.000
 953.0600, -81.843
 953.0700, -81.240
 953.0800, -78.196
 953.0900, -76.273
 953.1000, -77.710
 953.1100, -81.776
 953.1200, -78.979
 953.1300, -87.390
 953.1400, -90.639
 953.1500,-210.000
 953.1600, -77.758
 953.1700, -89.514
 953.1800, -76.828
 953.1900, -78.697
 953.2000, -82.243
 953.2100, -78.351
 953.2200, -92.633
 953.2300, -80.066
 953.2400, -79.667
 953.2500, -83.184
 953.2600, -81.686
 953.2700, -77.406
 953.2800,-210.000
 953.2900, -78.771
 953.3000, -81.470
 953.3100, -79.466
 953.3200, -81.462
 953.3300, -76.227
 953.3400, -79.171
 953.3500, -79.165
 953.3600, -77.569
 953.3700, -78.371
 953.3800,-210.000
 953.3900, -80.034
 953.4000, -78.742
 953.4100,-210.000
 953.4200, -75.584
 953.4300, -77.623
 953.4400, -80.022
 953.4500, -96.595
 953.4600,-210.000
 953.4700, -79.229
 953.4800, -79.060
 953.4900, -79.293
 953.5000,-210.000
 953.5100,-210.000
 953.5200, -82.279
 953.5300, -78.744
 953.5400, -76.335
 953.5500,-210.000
 953.5600, -78.089
 953.5700, -78.960
 953.5800, -76.540
 953.5900, -81.941
 953.6000,-210.000
 953.6100, -79.185
 953.6200, -80.781
 953.6300,-210.000
 953.6400, -81.775
 953.6500,-210.000
 953.6600,-210.000
 953.6700, -79.876
 953.6800, -88.567
 953.6900, -83.283
 953.7000, -78.097
 953.7100, -80.569
 953.7200, -88.093
 953.7300, -80.693
 953.7400,-210.000
 953.7500,-105.611
 953.7600, -77.388
 953.7700, -77.087
 953.7800, -81.792
 953.7900, -82.349
 953.8000, -90.940
 953.8100, -78.707
 953.8200, -82.229
 953.8300, -77.872
 953.8400,-210.000
 953.8500, -79.325
 953.8600, -78.882
 953.8700, -81.283
 953.8800, -82.263
 953.8900, -87.227
 953.9000, -80.698
 953.9100, -79.117
 953.9200, -78.291
 953.9300, -84.994
 953.9400, -81.344
 953.9500, -80.175
 953.9600, -75.929
 953.9700,-210.000
 953.9800, -80.253
 953.9900, -78.676
 954.0000, -78.980
 954.0100, -79.838
 954.0200, -77.252
 954.0300, -81.544
 954.0400, -77.344
 954.0500, -78.037
 954.0600, -79.104
 954.0700, -79.288
 954.0800, -81.803
 954.0900,-210.000
 954.1000, -80.385
 954.1100, -77.671
 954.1200, -79.511
 954.1300, -80.436
 954.1400, -77.934
 954.1500, -82.234
 954.1600, -81.927
 954.1700, -78.621
 954.1800, -80.027
 954.1900, -77.134
 954.2000, -80.094
 954.2100, -77.981
 954.2200, -79.734
 954.2300, -81.316
 954.2400, -80.659
 954.2500, -79.062
 954.2600, -80.719
 954.2700, -77.714
 954.2800, -77.495
 954.2900,-210.000
 954.3000,-210.000
 954.3100, -85.965
 954.3200, -77.955
 954.3300, -76.889
 954.3400, -79.736
 954.3500, -77.217
 954.3600, -78.301
 954.3700, -81.012
 954.3800, -79.643
 954.3900, -76.155
 954.4000, -77.291
 954.4100, -78.824
 954.4200, -76.702
 954.4300, -81.442
 954.4400, -78.865
 954.4500, -82.456
 954.4600,-210.000
 954.4700, -79.872
 954.4800, -75.491
 954.4900, -81.838
 954.5000, -77.802
 954.5100, -77.011
 954.5200,-210.000
 954.5300, -77.935
 954.5400, -83.737
 954.5500, -80.187
 954.5600, -84.051
 954.5700, -77.802
 954.5800, -78.250
 954.5900, -79.135
 954.6000, -78.160
 954.6100, -80.545
 954.6200,-210.000
 954.6300, -77.710
 954.6400, -78.663
 954.6500, -86.492
 954.6600, -76.656
 954.6700,-210.000
 954.6800, -82.193
 954.6900, -80.587
 954.7000,-210.000
 954.7100, -83.247
 954.7200, -78.669
 954.7300, -77.882
 954.7400, -77.276
 954.7500, -83.936
 954.7600, -83.552
 954.7700, -79.163
 954.7800, -77.341
 954.7900, -82.093
 954.8000, -79.140
 954.8100, -82.343
 954.8200, -81.225
 954.8300, -75.891
 954.8400, -77.709
 954.8500, -80.676
 954.8600, -79.776
 954.8700, -79.582
 954.8800, -80.738
 954.8900, -79.379
 954.9000, -78.466
 954.9100, -77.571
 954.9200, -78.554
 954.9300, -78.744
 954.9400, -80.209
 954.9500, -82.623
 954.9600, -80.717
 954.9700, -77.798
 954.9800, -77.764
 954.9900, -81.677
 955.0000,-210.000
 955.0100, -83.358
 955.0200, -76.583
 955.0300, -74.379
 955.0400, -76.617
 955.0500, -75.698
 955.0600, -81.924
 955.0700, -80.192
 955.0800, -78.205
 955.0900, -78.936
 955.1000, -76.882
 955.1100, -79.836
 955.1200, -79.471
 955.1300,-210.000
 955.1400,-210.000
 955.1500, -79.742
 955.1600, -79.313
 955.1700, -78.653
 955.1800, -77.863
 955.1900, -77.523
 955.2000, -76.282
 955.2100, -77.622
 955.2200, -85.126
 955.2300,-210.000
 955.2400, -76.371
 955.2500, -90.381
 955.2600, -87.021
 955.2700, -81.824
 955.2800, -77.676
 955.2900, -84.174
 955.3000, -77.721
 955.3100, -79.170
 955.3200, -79.987
 955.3300, -79.476
 955.3400, -80.869
 955.3500, -79.903
 955.3600, -88.135
 955.3700, -76.993
 955.3800, -76.386
 955.3900, -77.731
 955.4000, -81.454
 955.4100, -77.215
 955.4200, -75.883
 955.4300, -76.857
 955.4400, -78.421
 955.4500, -84.790
 955.4600, -86.369
 955.4700, -78.898
 955.4800, -78.310
 955.4900, -77.547
 955.5000, -77.805
 955.5100, -80.105
 955.5200, -82.160
 955.5300, -79.162
 955.5400, -78.775
 955.5500, -77.411
 955.5600, -78.493
 955.5700, -78.542
 955.5800, -78.084
 955.5900, -76.799
 955.6000, -80.942
 955.6100, -81.521
 955.6200, -76.088
 955.6300, -76.678
 955.6400, -77.440
 955.6500, -80.700
 955.6600, -76.952
 955.6700, -78.794
 955.6800, -80.543
 955.6900, -79.951
 955.7000, -76.466
 955.7100, -76.121
 955.7200,-210.000
 955.7300,-210.000
 955.7400, -77.763
 955.7500, -77.540
 955.7600, -81.290
 955.7700, -78.468
 955.7800, -77.555
 955.7900,-210.000
 955.8000, -81.263
 955.8100, -94.058
 955.8200, -78.972
 955.8300, -81.611
 955.8400, -81.810
 955.8500, -78.552
 955.8600, -77.783
 955.8700, -76.980
 955.8800, -84.740
 955.8900, -78.910
 955.9000, -79.523
 955.9100, -76.482
 955.9200, -80.869
 955.9300, -79.823
 955.9400, -77.072
 955.9500, -80.764
 955.9600, -75.392
 955.9700, -77.664
 955.9800, -76.502
 955.9900, -75.626
 956.0000, -85.987
 956.0100, -77.195
 956.0200, -78.871
 956.0300, -78.491
 956.0400, -80.641
 956.0500, -78.293
 956.0600, -83.438
 956.0700, -81.271
 956.0800, -79.011
 956.0900, -78.010
 956.1000, -79.108
 956.1100, -77.135
 956.1200, -82.916
 956.1300, -81.181
 956.1400, -85.815
 956.1500, -77.435
 956.1600, -80.682
 956.1700, -77.185
 956.1800, -77.622
 956.1900, -80.170
 956.2000, -76.807
 956.2100, -76.400
 956.2200, -81.372
 956.2300, -84.837
 956.2400, -76.833
 956.2500, -79.285
 956.2600, -79.973
 956.2700, -86.379
 956.2800, -77.201
 956.2900, -76.854
 956.3000, -81.215
 956.3100, -78.426
 956.3200,-210.000
 956.3300, -79.372
 956.3400, -78.131
 956.3500, -76.233
 956.3600, -79.355
 956.3700, -78.550
 956.3800, -77.500
 956.3900, -79.835
 956.4000, -80.583
 956.4100, -78.473
 956.4200, -79.943
 956.4300, -75.522
 956.4400, -80.904
 956.4500, -79.493
 956.4600, -81.534
 956.4700, -77.188
 956.4800, -78.320
 956.4900, -76.353
 956.5000, -75.964
 956.5100, -82.545
 956.5200, -77.894
 956.5300, -76.820
 956.5400, -75.498
 956.5500, -77.653
 956.5600,-210.000
 956.5700, -76.856
 956.5800,-210.000
 956.5900, -77.741
 956.6000, -75.768
 956.6100, -78.050
 956.6200, -76.023
 956.6300, -76.978
 956.6400, -77.034
 956.6500, -84.354
 956.6600, -80.477
 956.6700, -77.420
 956.6800, -79.549
 956.6900, -75.916
 956.7000, -77.716
 956.7100, -78.089
 956.7200, -77.234
 956.7300, -75.815
 956.7400, -77.410
 956.7500, -75.165
 956.7600, -78.545
 956.7700, -80.127
 956.7800, -79.493
 956.7900, -75.650
 956.8000, -80.824
 956.8100, -76.700
 956.8200, -86.377
 956.8300, -76.714
 956.8400, -79.140
 956.8500, -76.834
 956.8600, -84.178
 956.8700, -78.416
 956.8800, -78.210
 956.8900, -76.562
 956.9000, -77.529
 956.9100, -77.009
 956.9200, -74.822
 956.9300, -77.441
 956.9400, -77.350
 956.9500, -76.039
 956.9600, -76.807
 956.9700, -76.232
 956.9800, -77.821
 956.9900, -77.912
 957.0000, -78.160
 957.0100, -77.352
 957.0200, -86.528
 957.0300, -75.316
 957.0400, -77.398
 957.0500, -82.619
 957.0600, -82.199
 957.0700, -82.160
 957.0800, -80.641
 957.0900, -78.747
 957.1000, -78.243
 957.1100, -77.405
 957.1200, -78.039
 957.1300, -78.484
 957.1400, -78.489
 957.1500, -78.562
 957.1600, -78.224
 957.1700, -78.921
 957.1800, -78.244
 957.1900, -79.193
 957.2000, -82.348
 957.2100, -78.295
 957.2200, -77.038
 957.2300, -75.212
 957.2400, -78.955
 957.2500, -77.067
 957.2600,-210.000
 957.2700, -76.782
 957.2800, -76.759
 957.2900, -81.664
 957.3000, -75.148
 957.3100, -76.643
 957.3200, -76.918
 957.3300, -81.101
 957.3400, -77.292
 957.3500, -77.347
 957.3600, -76.223
 957.3700, -83.395
 957.3800, -76.754
 957.3900, -76.767
 957.4000, -78.350
 957.4100, -77.678
 957.4200, -77.035
 957.4300, -75.234
 957.4400, -76.072
 957.4500, -75.888
 957.4600, -78.146
 957.4700, -76.736
 957.4800, -75.464
 957.4900, -76.943
 957.5000, -77.753
 957.5100, -75.090
 957.5200, -76.743
 957.5300, -77.527
 957.5400, -77.571
 957.5500, -78.632
 957.5600, -84.022
 957.5700, -78.225
 957.5800, -75.463
 957.5900, -75.238
 957.6000, -76.192
 957.6100, -80.450
 957.6200, -78.501
 957.6300, -75.183
 957.6400, -77.928
 957.6500, -78.706
 957.6600, -86.206
 957.6700, -77.438
 957.6800, -76.735
 957.6900, -76.874
 957.7000, -76.864
 957.7100, -75.508
 957.7200, -77.188
 957.7300, -78.724
 957.7400, -78.480
 957.7500, -76.476
 957.7600, -80.066
 957.7700, -76.894
 957.7800, -77.058
 957.7900, -74.792
 957.8000, -74.771
 957.8100, -77.506
 957.8200, -76.019
 957.8300, -75.914
 957.8400,-210.000
 957.8500, -78.688
 957.8600, -76.948
 957.8700, -75.641
 957.8800, -77.896
 957.8900, -76.047
 957.9000, -79.049
 957.9100, -77.327
 957.9200, -78.634
 957.9300, -79.115
 957.9400, -76.499
 957.9500, -79.698
 957.9600, -75.055
 957.9700, -76.975
 957.9800, -78.125
 957.9900, -79.278
 958.0000, -78.349
 958.0100, -76.523
 958.0200, -78.787
 958.0300, -76.821
 958.0400, -74.170
 958.0500, -79.836
 958.0600, -76.658
 958.0700, -79.346
 958.0800, -78.934
 958.0900, -78.314
 958.1000, -78.072
 958.1100, -76.789
 958.1200, -78.102
 958.1300, -74.217
 958.1400, -76.136
 958.1500, -75.366
 958.1600, -78.381
 958.1700, -75.893
 958.1800, -75.558
 958.1900, -77.498
 958.2000, -77.037
 958.2100, -76.635
 958.2200, -77.127
 958.2300, -76.959
 958.2400, -81.268
 958.2500, -79.114
 958.2600, -75.360
 958.2700, -76.483
 958.2800, -77.323
 958.2900, -74.961
 958.3000, -75.384
 958.3100, -76.189
 958.3200, -76.905
 958.3300, -74.964
 958.3400, -75.752
 958.3500, -75.498
 958.3600, -74.969
 958.3700, -77.338
 958.3800, -82.073
 958.3900, -78.409
 958.4000, -80.280
 958.4100, -75.847
 958.4200, -76.282
 958.4300, -77.247
 958.4400, -75.091
 958.4500, -76.660
 958.4600, -77.962
 958.4700, -76.211
 958.4800, -76.085
 958.4900, -76.969
 958.5000, -77.624
 958.5100, -75.091
 958.5200, -76.254
 958.5300, -75.569
 958.5400, -76.837
 958.5500, -75.276
 958.5600, -75.341
 958.5700, -75.121
 958.5800, -76.034
 958.5900, -76.521
 958.6000, -77.201
 958.6100, -78.742
 958.6200, -76.449
 958.6300, -77.033
 958.6400, -77.474
 958.6500, -77.711
 958.6600, -74.476
 958.6700, -76.166
 958.6800, -76.466
 958.6900, -75.543
 958.7000, -76.100
 958.7100, -76.877
 958.7200, -76.728
 958.7300, -76.302
 958.7400, -75.870
 958.7500, -74.712
 958.7600, -77.110
 958.7700, -74.192
 958.7800, -75.760
 958.7900, -76.095
 958.8000, -79.927
 958.8100, -77.309
 958.8200, -75.519
 958.8300, -77.203
 958.8400, -78.331
 958.8500, -76.484
 958.8600, -74.198
 958.8700, -76.046
 958.8800, -76.756
 958.8900, -78.095
 958.9000, -73.800
 958.9100, -77.564
 958.9200, -75.071
 958.9300, -75.938
 958.9400, -77.001
 958.9500, -79.744
 958.9600, -77.013
 958.9700, -77.260
 958.9800, -75.383
 958.9900, -76.791
 959.0000, -74.495
 959.0100, -75.260
 959.0200, -76.407
 959.0300, -75.049
 959.0400, -74.515
 959.0500, -76.417
 959.0600, -74.936
 959.0700, -76.522
 959.0800, -74.296
 959.0900, -75.975
 959.1000, -75.544
 959.1100, -78.035
 959.1200, -76.507
 959.1300, -74.954
 959.1400, -74.489
 959.1500, -75.825
 959.1600, -75.110
 959.1700, -74.747
 959.1800, -74.398
 959.1900, -74.485
 959.2000, -77.715
 959.2100, -75.043
 959.2200, -75.789
 959.2300, -74.951
 959.2400, -73.980
 959.2500, -76.081
 959.2600, -78.072
 959.2700, -76.666
 959.2800, -74.171
 959.2900, -73.672
 959.3000, -73.670
 959.3100, -79.185
 959.3200, -75.212
 959.3300, -75.104
 959.3400, -75.342
 959.3500, -75.871
 959.3600, -76.737
 959.3700, -78.966
 959.3800, -77.641
 959.3900, -74.691
 959.4000, -74.954
 959.4100, -74.825
 959.4200, -74.383
 959.4300, -75.069
 959.4400, -77.249
 959.4500, -74.887
 959.4600, -74.795
 959.4700, -75.267
 959.4800, -75.820
 959.4900, -74.264
 959.5000, -76.146
 959.5100, -74.336
 959.5200, -74.954
 959.5300, -75.809
 959.5400, -78.019
 959.5500, -75.328
 959.5600, -75.577
 959.5700, -74.288
 959.5800, -74.814
 959.5900, -75.306
 959.6000, -75.272
 959.6100, -74.666
 959.6200, -73.681
 959.6300, -72.584
 959.6400, -74.295
 959.6500, -75.320
 959.6600, -75.220
 959.6700, -75.769
 959.6800, -75.457
 959.6900, -74.310
 959.7000, -74.209
 959.7100, -74.959
 959.7200, -75.315
 959.7300, -74.605
 959.7400, -75.131
 959.7500, -73.453
 959.7600, -74.552
 959.7700, -74.613
 959.7800, -75.068
 959.7900, -77.208
 959.8000, -73.975
 959.8100, -74.140
 959.8200, -73.526
 959.8300, -74.375
 959.8400, -73.546
 959.8500, -73.628
 959.8600, -74.588
 959.8700, -74.455
 959.8800, -74.681
 959.8900, -74.573
 959.9000, -74.654
 959.9100, -74.701
 959.9200, -75.017
 959.9300, -74.807
 959.9400, -74.716
 959.9500, -74.848
 959.9600, -74.295
 959.9700, -73.883
 959.9800, -74.115
 959.9900, -74.606
 960.0000, -75.265
 960.0100, -74.314
 960.0200, -75.196
 960.0300, -73.707
 960.0400, -74.253
 960.0500, -74.963
 960.0600, -74.620
 960.0700, -77.090
 960.0800, -76.117
 960.0900, -73.843
 960.1000, -73.458
 960.1100, -74.268
 960.1200, -74.935
 960.1300, -73.915
 960.1400, -76.336
 960.1500, -76.176
 960.1600, -75.032
 960.1700, -74.801
 960.1800, -73.764
 960.1900, -74.466
 960.2000, -73.787
 960.2100, -73.280
 960.2200, -73.204
 960.2300, -74.824
 960.2400, -74.247
 960.2500, -74.021
 960.2600, -74.649
 960.2700, -74.336
 960.2800, -74.411
 960.2900, -74.039
 960.3000, -73.430
 960.3100, -74.039
 960.3200, -73.621
 960.3300, -74.522
 960.3400, -74.872
 960.3500, -75.176
 960.3600, -73.200
 960.3700, -76.163
 960.3800, -74.449
 960.3900, -76.032
 960.4000, -74.664
 960.4100, -75.748
 960.4200, -74.491
 960.4300, -74.000
 960.4400, -73.368
 960.4500, -73.248
 960.4600, -74.262
 960.4700, -73.729
 960.4800, -74.655
 960.4900, -73.158
 960.5000, -74.881
 960.5100, -73.703
 960.5200, -75.835
 960.5300, -75.389
 960.5400, -74.875
 960.5500, -73.181
 960.5600, -75.635
 960.5700, -73.454
 960.5800, -73.954
 960.5900, -73.496
 960.6000, -74.416
 960.6100, -73.704
 960.6200, -74.670
 960.6300, -72.873
 960.6400, -74.455
 960.6500, -74.099
 960.6600, -72.964
 960.6700, -74.069
 960.6800, -74.491
 960.6900, -73.224
 960.7000, -74.120
 960.7100, -74.275
 960.7200, -73.131
 960.7300, -73.371
 960.7400, -72.638
 960.7500, -74.708
 960.7600, -73.729
 960.7700, -73.386
 960.7800, -73.722
 960.7900, -73.080
 960.8000, -74.435
 960.8100, -74.965
 960.8200, -75.027
 960.8300, -74.960
 960.8400, -74.422
 960.8500, -72.569
 960.8600, -72.840
 960.8700, -73.497
 960.8800, -73.428
 960.8900, -74.165
 960.9000, -74.551
 960.9100, -74.614
 960.9200, -72.639
 960.9300, -72.894
 960.9400, -74.605
 960.9500, -73.378
 960.9600, -72.534
 960.9700, -72.590
 960.9800, -72.767
 960.9900, -72.427
 961.0000, -73.614
 961.0100, -72.675
 961.0200, -73.380
 961.0300, -74.047
 961.0400, -72.352
 961.0500, -72.227
 961.0600, -73.251
 961.0700, -72.287
 961.0800, -72.688
 961.0900, -73.127
 961.1000, -73.076
 961.1100, -72.579
 961.1200, -73.057
 961.1300, -73.310
 961.1400, -73.025
 961.1500, -72.816
 961.1600, -72.730
 961.1700, -72.872
 961.1800, -73.455
 961.1900, -71.830
 961.2000, -73.053
 961.2100, -72.935
 961.2200, -72.951
 961.2300, -73.259
 961.2400, -73.328
 961.2500, -73.874
 961.2600, -73.905
 961.2700, -71.599
 961.2800, -72.525
 961.2900, -73.069
 961.3000, -73.440
 961.3100, -73.628
 961.3200, -71.709
 961.3300, -72.564
 961.3400, -72.833
 961.3500, -72.727
 961.3600, -73.130
 961.3700, -74.039
 961.3800, -73.513
 961.3900, -72.532
 961.4000, -72.087
 961.4100, -72.968
 961.4200, -72.541
 961.4300, -71.978
 961.4400, -72.560
 961.4500, -72.534
 961.4600, -71.252
 961.4700, -73.085
 961.4800, -73.155
 961.4900, -71.811
 961.5000, -71.779
 961.5100, -71.847
 961.5200, -72.227
 961.5300, -72.150
 961.5400, -72.004
 961.5500, -71.812
 961.5600, -72.682
 961.5700, -72.884
 961.5800, -72.028
 961.5900, -72.772
 961.6000, -72.115
 961.6100, -74.300
 961.6200, -72.314
 961.6300, -71.237
 961.6400, -72.533
 961.6500, -72.560
 961.6600, -72.496
 961.6700, -72.651
 961.6800, -72.278
 961.6900, -72.589
 961.7000, -71.969
 961.7100, -72.974
 961.7200, -72.213
 961.7300, -72.123
 961.7400, -72.180
 961.7500, -71.996
 961.7600, -73.378
 961.7700, -71.667
 961.7800, -72.687
 961.7900, -71.681
 961.8000, -72.065
 961.8100, -72.333
 961.8200, -72.180
 961.8300, -72.677
 961.8400, -72.172
 961.8500, -71.851
 961.8600, -71.767
 961.8700, -71.765
 961.8800, -71.649
 961.8900, -72.493
 961.9000, -71.487
 961.9100, -71.621
 961.9200, -71.081
 961.9300, -72.201
 961.9400, -72.123
 961.9500, -71.745
 961.9600, -71.974
 961.9700, -72.267
 961.9800, -71.744
 961.9900, -71.764
 962.0000, -71.530
 962.0100, -71.005
 962.0200, -72.082
 962.0300, -71.545
 962.0400, -72.289
 962.0500, -72.164
 962.0600, -71.428
 962.0700, -71.346
 962.0800, -71.735
 962.0900, -71.355
 962.1000, -71.594
 962.1100, -71.304
 962.1200, -71.901
 962.1300, -71.254
 962.1400, -72.538
 962.1500, -72.237
 962.1600, -72.084
 962.1700, -71.927
 962.1800, -72.395
 962.1900, -71.720
 962.2000, -70.902
 962.2100, -72.182
 962.2200, -72.126
 962.2300, -71.334
 962.2400, -72.438
 962.2500, -70.561
 962.2600, -72.020
 962.2700, -71.769
 962.2800, -71.003
 962.2900, -71.554
 962.3000, -71.470
 962.3100, -71.641
 962.3200, -71.118
 962.3300, -71.178
 962.3400, -71.991
 962.3500, -71.957
 962.3600, -72.230
 962.3700, -71.724
 962.3800, -71.715
 962.3900, -71.072
 962.4000, -71.834
 962.4100, -71.312
 962.4200, -72.238
 962.4300, -71.574
 962.4400, -71.327
 962.4500, -72.042
 962.4600, -71.064
 962.4700, -71.187
 962.4800, -71.800
 962.4900, -71.261
 962.5000, -71.512
 962.5100, -71.536
 962.5200, -71.075
 962.5300, -71.535
 962.5400, -72.098
 962.5500, -71.321
 962.5600, -71.864
 962.5700, -71.875
 962.5800, -71.243
 962.5900, -70.707
 962.6000, -71.669
 962.6100, -71.953
 962.6200, -71.698
 962.6300, -72.331
 962.6400, -70.788
 962.6500, -71.584
 962.6600, -71.485
 962.6700, -70.695
 962.6800, -71.782
 962.6900, -70.716
 962.7000, -71.045
 962.7100, -71.295
 962.7200, -71.513
 962.7300, -71.316
 962.7400, -70.722
 962.7500, -71.004
 962.7600, -71.253
 962.7700, -70.828
 962.7800, -71.531
 962.7900, -71.042
 962.8000, -71.757
 962.8100, -72.040
 962.8200, -71.092
 962.8300, -71.444
 962.8400, -71.375
 962.8500, -71.977
 962.8600, -71.593
 962.8700, -71.495
 962.8800, -70.869
 962.8900, -72.230
 962.9000, -70.634
 962.9100, -71.125
 962.9200, -71.201
 962.9300, -70.599
 962.9400, -70.505
 962.9500, -71.448
 962.9600, -70.841
 962.9700, -70.965
 962.9800, -71.157
 962.9900, -70.980
 963.0000, -71.200
 963.0100, -70.534
 963.0200, -71.613
 963.0300, -71.245
 963.0400, -70.853
 963.0500, -71.329
 963.0600, -70.766
 963.0700, -70.561
 963.0800, -70.549
 963.0900, -70.629
 963.1000, -70.345
 963.1100, -71.444
 963.1200, -70.110
 963.1300, -70.875
 963.1400, -70.794
 963.1500, -70.504
 963.1600, -70.428
 963.1700, -70.790
 963.1800, -70.495
 963.1900, -70.581
 963.2000, -70.461
 963.2100, -70.644
 963.2200, -69.548
 963.2300, -70.635
 963.2400, -70.150
 963.2500, -69.916
 963.2600, -69.816
 963.2700, -70.102
 963.2800, -69.670
 963.2900, -69.618
 963.3000, -70.200
 963.3100, -69.535
 963.3200, -69.308
 963.3300, -69.822
 963.3400, -69.569
 963.3500, -69.374
 963.3600, -69.068
 963.3700, -69.313
 963.3800, -69.202
 963.3900, -69.224
 963.4000, -69.232
 963.4100, -69.206
 963.4200, -69.149
 963.4300, -68.786
 963.4400, -69.055
 963.4500, -68.798
 963.4600, -68.771
 963.4700, -68.924
 963.4800, -69.177
 963.4900, -69.597
 963.5000, -69.229
 963.5100, -69.750
 963.5200, -69.369
 963.5300, -69.692
 963.5400, -69.725
 963.5500, -69.568
 963.5600, -69.481
 963.5700, -69.317
 963.5800, -69.951
 963.5900, -69.572
 963.6000, -70.017
 963.6100, -70.189
 963.6200, -69.807
 963.6300, -69.726
 963.6400, -69.630
 963.6500, -69.197
 963.6600, -70.105
 963.6700, -69.596
 963.6800, -69.512
 963.6900, -69.410
 963.7000, -69.829
 963.7100, -69.714
 963.7200, -69.622
 963.7300, -69.299
 963.7400, -69.730
 963.7500, -69.400
 963.7600, -69.482
 963.7700, -69.924
 963.7800, -69.853
 963.7900, -69.193
 963.8000, -68.846
 963.8100, -69.770
 963.8200, -69.119
 963.8300, -69.120
 963.8400, -69.209
 963.8500, -69.429
 963.8600, -69.299
 963.8700, -68.726
 963.8800, -69.188
 963.8900, -69.071
 963.9000, -69.551
 963.9100, -69.312
 963.9200, -68.921
 963.9300, -69.233
 963.9400, -69.164
 963.9500, -69.255
 963.9600, -69.018
 963.9700, -69.134
 963.9800, -69.026
 963.9900, -68.986
 964.0000, -69.315
 964.0100, -68.569
 964.0200, -69.051
 964.0300, -68.970
 964.0400, -68.528
 964.0500, -68.682
 964.0600, -69.534
 964.0700, -69.264
 964.0800, -68.820
 964.0900, -68.906
 964.1000, -69.135
 964.1100, -68.914
 964.1200, -68.507
 964.1300, -68.633
 964.1400, -68.460
 964.1500, -68.678
 964.1600, -68.322
 964.1700, -68.414
 964.1800, -68.639
 964.1900, -69.293
 964.2000, -69.342
 964.2100, -68.452
 964.2200, -68.693
 964.2300, -68.843
 964.2400, -68.273
 964.2500, -68.869
 964.2600, -67.758
 964.2700, -68.363
 964.2800, -67.796
 964.2900, -66.744
 964.3000, -67.965
 964.3100, -68.036
 964.3200, -67.101
 964.3300, -66.800
 964.3400, -67.036
 964.3500, -67.351
 964.3600, -67.966
 964.3700, -67.817
 964.3800, -67.506
 964.3900, -66.967
 964.4000, -67.210
 964.4100, -67.536
 964.4200, -67.904
 964.4300, -67.788
 964.4400, -68.236
 964.4500, -67.653
 964.4600, -67.618
 964.4700, -68.069
 964.4800, -68.145
 964.4900, -67.893
 964.5000, -67.754
 964.5100, -67.622
 964.5200, -67.449
 964.5300, -67.585
 964.5400, -67.401
 964.5500, -67.913
 964.5600, -68.132
 964.5700, -67.797
 964.5800, -68.065
 964.5900, -67.869
 964.6000, -67.998
 964.6100, -67.865
 964.6200, -68.248
 964.6300, -68.069
 964.6400, -67.592
 964.6500, -68.030
 964.6600, -67.500
 964.6700, -65.900
 964.6800, -60.358
 964.6900, -55.600
 964.7000, -52.090
 964.7100, -49.358
 964.7200, -47.990
 964.7300, -46.818
 964.7400, -45.907
 964.7500, -45.148
 964.7600, -44.899
 964.7700, -44.688
 964.7800, -44.677
 964.7900, -44.544
 964.8000, -43.913
 964.8100, -43.677
 964.8200, -43.804
 964.8300, -43.982
 964.8400, -44.753
 964.8500, -45.264
 964.8600, -45.983
 964.8700, -47.560
 964.8800, -49.434
 964.8900, -50.945
 964.9000, -52.440
 964.9100, -52.899
 964.9200, -54.042
 964.9300, -57.233
 964.9400, -60.272
 964.9500, -62.611
 964.9600, -63.043
 964.9700, -62.753
 964.9800, -62.876
 964.9900, -62.652
 965.0000, -61.505
 965.0100, -57.536
 965.0200, -53.824
 965.0300, -49.694
 965.0400, -46.417
 965.0500, -44.607
 965.0600, -43.469
 965.0700, -42.556
 965.0800, -42.215
 965.0900, -42.050
 965.1000, -42.325
 965.1100, -42.366
 965.1200, -42.184
 965.1300, -42.013
 965.1400, -41.777
 965.1500, -41.855
 965.1600, -41.900
 965.1700, -42.462
 965.1800, -43.257
 965.1900, -44.460
 965.2000, -46.032
 965.2100, -48.279
 965.2200, -52.720
 965.2300, -57.759
 965.2400, -61.996
 965.2500, -63.235
 965.2600, -63.300
 965.2700, -62.645
 965.2800, -60.788
 965.2900, -57.384
 965.3000, -54.211
 965.3100, -51.341
 965.3200, -49.069
 965.3300, -47.757
 965.3400, -46.773
 965.3500, -45.873
 965.3600, -45.574
 965.3700, -45.141
 965.3800, -44.740
 965.3900, -44.377
 965.4000, -43.909
 965.4100, -43.720
 965.4200, -43.762
 965.4300, -43.668
 965.4400, -43.926
 965.4500, -44.139
 965.4600, -44.733
 965.4700, -45.370
 965.4800, -45.946
 965.4900, -46.210
 965.5000, -46.140
 965.5100, -45.737
 965.5200, -45.728
 965.5300, -45.617
 965.5400, -45.292
 965.5500, -44.929
 965.5600, -44.602
 965.5700, -44.833
 965.5800, -44.967
 965.5900, -44.194
 965.6000, -43.918
 965.6100, -43.271
 965.6200, -42.094
 965.6300, -41.166
 965.6400, -40.328
 965.6500, -40.002
 965.6600, -40.079
 965.6700, -39.908
 965.6800, -39.669
 965.6900, -39.219
 965.7000, -39.157
 965.7100, -39.284
 965.7200, -39.583
 965.7300, -39.849
 965.7400, -40.273
 965.7500, -40.502
 965.7600, -40.782
 965.7700, -41.165
 965.7800, -42.317
 965.7900, -43.800
 965.8000, -45.813
 965.8100, -48.124
 965.8200, -49.248
 965.8300, -49.660
 965.8400, -49.978
 965.8500, -50.004
 965.8600, -50.676
 965.8700, -51.423
 965.8800, -52.305
 965.8900, -53.468
 965.9000, -54.902
 965.9100, -55.788
 965.9200, -56.962
 965.9300, -57.444
 965.9400, -57.057
 965.9500, -57.040
 965.9600, -55.926
 965.9700, -54.386
 965.9800, -55.000
 965.9900, -55.353
 966.0000, -55.676
 966.0100, -55.086
 966.0200, -54.147
 966.0300, -54.265
 966.0400, -53.914
 966.0500, -53.710
 966.0600, -53.755
 966.0700, -53.600
 966.0800, -53.421
 966.0900, -53.957
 966.1000, -54.413
 966.1100, -55.161
 966.1200, -55.503
 966.1300, -55.443
 966.1400, -55.958
 966.1500, -56.201
 966.1600, -56.543
 966.1700, -57.115
 966.1800, -57.421
 966.1900, -57.489
 966.2000, -56.055
 966.2100, -54.560
 966.2200, -52.274
 966.2300, -51.814
 966.2400, -53.152
 966.2500, -52.677
 966.2600, -51.720
 966.2700, -51.264
 966.2800, -51.932
 966.2900, -52.851
 966.3000, -53.252
 966.3100, -52.194
 966.3200, -51.284
 966.3300, -50.796
 966.3400, -51.541
 966.3500, -53.798
 966.3600, -53.973
 966.3700, -55.110
 966.3800, -56.093
 966.3900, -58.334
 966.4000, -59.155
 966.4100, -56.794
 966.4200, -53.793
 966.4300, -49.088
 966.4400, -46.250
 966.4500, -44.147
 966.4600, -43.464
 966.4700, -42.534
 966.4800, -41.855
 966.4900, -41.754
 966.5000, -41.443
 966.5100, -41.830
 966.5200, -42.047
 966.5300, -41.366
 966.5400, -41.329
 966.5500, -41.668
 966.5600, -42.235
 966.5700, -42.657
 966.5800, -42.092
 966.5900, -41.325
 966.6000, -41.072
 966.6100, -40.899
 966.6200, -40.901
 966.6300, -40.762
 966.6400, -40.438
 966.6500, -40.264
 966.6600, -40.072
 966.6700, -39.837
 966.6800, -39.730
 966.6900, -39.614
 966.7000, -39.636
 966.7100, -39.725
 966.7200, -40.130
 966.7300, -40.850
 966.7400, -41.817
 966.7500, -43.823
 966.7600, -45.341
 966.7700, -46.920
 966.7800, -48.163
 966.7900, -47.709
 966.8000, -47.758
 966.8100, -48.441
 966.8200, -48.597
 966.8300, -48.814
 966.8400, -48.528
 966.8500, -48.207
 966.8600, -48.449
 966.8700, -48.838
 966.8800, -49.243
 966.8900, -49.625
 966.9000, -50.201
 966.9100, -49.921
 966.9200, -49.073
 966.9300, -48.394
 966.9400, -48.034
 966.9500, -47.843
 966.9600, -48.340
 966.9700, -48.028
 966.9800, -48.084
 966.9900, -47.352
 967.0000, -46.381
 967.0100, -45.213
 967.0200, -43.988
 967.0300, -42.463
 967.0400, -42.091
 967.0500, -41.845
 967.0600, -41.873
 967.0700, -41.999
 967.0800, -41.293
 967.0900, -41.418
 967.1000, -40.988
 967.1100, -40.454
 967.1200, -39.560
 967.1300, -38.902
 967.1400, -38.519
 967.1500, -38.508
 967.1600, -38.605
 967.1700, -38.519
 967.1800, -38.179
 967.1900, -38.069
 967.2000, -37.901
 967.2100, -37.921
 967.2200, -38.377
 967.2300, -38.263
 967.2400, -38.159
 967.2500, -38.191
 967.2600, -38.495
 967.2700, -39.414
 967.2800, -40.465
 967.2900, -41.493
 967.3000, -42.010
 967.3100, -42.643
 967.3200, -44.016
 967.3300, -45.348
 967.3400, -49.054
 967.3500, -51.157
 967.3600, -49.942
 967.3700, -47.833
 967.3800, -45.609
 967.3900, -44.845
 967.4000, -44.263
 967.4100, -43.583
 967.4200, -42.738
 967.4300, -42.356
 967.4400, -42.252
 967.4500, -42.035
 967.4600, -41.763
 967.4700, -41.233
 967.4800, -40.923
 967.4900, -40.825
 967.5000, -41.023
 967.5100, -41.371
 967.5200, -41.476
 967.5300, -41.613
 967.5400, -42.309
 967.5500, -43.180
 967.5600, -44.028
 967.5700, -44.567
 967.5800, -44.963
 967.5900, -45.370
 967.6000, -45.888
 967.6100, -46.636
 967.6200, -47.943
 967.6300, -49.597
 967.6400, -51.270
 967.6500, -53.266
 967.6600, -55.826
 967.6700, -59.323
 967.6800, -63.391
 967.6900, -64.599
 967.7000, -65.449
 967.7100, -65.642
 967.7200, -64.487
 967.7300, -66.148
 967.7400, -66.659
 967.7500, -66.015
 967.7600, -65.539
 967.7700, -65.758
 967.7800, -66.903
 967.7900, -67.535
 967.8000, -67.236
 967.8100, -67.498
 967.8200, -67.336
 967.8300, -67.928
 967.8400, -67.565
 967.8500, -67.526
 967.8600, -67.647
 967.8700, -67.440
 967.8800, -67.577
 967.8900, -67.421
 967.9000, -67.388
 967.9100, -66.800
 967.9200, -67.001
 967.9300, -66.185
 967.9400, -65.148
 967.9500, -62.458
 967.9600, -58.509
 967.9700, -56.081
 967.9800, -53.214
 967.9900, -51.648
 968.0000, -48.786
 968.0100, -46.148
 968.0200, -45.649
 968.0300, -46.204
 968.0400, -45.399
 968.0500, -45.797
 968.0600, -44.362
 968.0700, -42.766
 968.0800, -41.933
 968.0900, -40.358
 968.1000, -39.224
 968.1100, -38.110
 968.1200, -37.477
 968.1300, -37.540
 968.1400, -37.742
 968.1500, -37.831
 968.1600, -38.159
 968.1700, -37.939
 968.1800, -37.869
 968.1900, -37.903
 968.2000, -37.754
 968.2100, -37.911
 968.2200, -38.087
 968.2300, -39.105
 968.2400, -41.014
 968.2500, -43.894
 968.2600, -46.382
 968.2700, -50.050
 968.2800, -54.556
 968.2900, -59.226
 968.3000, -62.654
 968.3100, -64.626
 968.3200, -65.502
 968.3300, -65.877
 968.3400, -65.944
 968.3500, -66.213
 968.3600, -66.264
 968.3700, -66.335
 968.3800, -66.455
 968.3900, -66.637
 968.4000, -66.352
 968.4100, -65.488
 968.4200, -63.169
 968.4300, -61.143
 968.4400, -58.608
 968.4500, -55.854
 968.4600, -55.069
 968.4700, -54.676
 968.4800, -54.060
 968.4900, -54.554
 968.5000, -52.945
 968.5100, -52.413
 968.5200, -52.046
 968.5300, -51.584
 968.5400, -51.437
 968.5500, -51.435
 968.5600, -50.990
 968.5700, -50.589
 968.5800, -49.862
 968.5900, -48.854
 968.6000, -48.234
 968.6100, -47.433
 968.6200, -47.007
 968.6300, -46.741
 968.6400, -46.597
 968.6500, -46.793
 968.6600, -47.065
 968.6700, -47.151
 968.6800, -47.398
 968.6900, -47.272
 968.7000, -47.722
 968.7100, -48.005
 968.7200, -48.257
 968.7300, -48.833
 968.7400, -50.241
 968.7500, -52.386
 968.7600, -55.580
 968.7700, -60.477
 968.7800, -64.451
 968.7900, -66.329
 968.8000, -66.578
 968.8100, -65.850
 968.8200, -65.158
 968.8300, -64.861
 968.8400, -63.664
 968.8500, -64.348
 968.8600, -63.791
 968.8700, -63.301
 968.8800, -63.758
 968.8900, -63.771
 968.9000, -63.341
 968.9100, -65.409
 968.9200, -62.242
 968.9300, -61.626
 968.9400, -60.752
 968.9500, -56.786
 968.9600, -51.764
 968.9700, -48.496
 968.9800, -46.466
 968.9900, -44.867
 969.0000, -44.277
 969.0100, -43.724
 969.0200, -43.253
 969.0300, -42.793
 969.0400, -42.608
 969.0500, -42.873
 969.0600, -42.887
 969.0700, -42.848
 969.0800, -42.886
 969.0900, -43.134
 969.1000, -43.085
 969.1100, -43.311
 969.1200, -43.890
 969.1300, -45.202
 969.1400, -47.238
 969.1500, -49.881
 969.1600, -52.529
 969.1700, -52.756
 969.1800, -52.930
 969.1900, -50.533
 969.2000, -47.303
 969.2100, -44.690
 969.2200, -42.489
 969.2300, -40.554
 969.2400, -39.769
 969.2500, -39.430
 969.2600, -39.798
 969.2700, -39.676
 969.2800, -39.367
 969.2900, -38.877
 969.3000, -38.371
 969.3100, -38.592
 969.3200, -38.667
 969.3300, -39.049
 969.3400, -39.386
 969.3500, -39.807
 969.3600, -40.807
 969.3700, -42.131
 969.3800, -43.178
 969.3900, -43.946
 969.4000, -45.482
 969.4100, -47.372
 969.4200, -50.539
 969.4300, -53.045
 969.4400, -56.884
 969.4500, -63.797
 969.4600, -67.646
 969.4700, -69.286
 969.4800, -69.933
 969.4900, -70.340
 969.5000, -70.472
 969.5100, -70.492
 969.5200, -70.636
 969.5300, -70.243
 969.5400, -70.749
 969.5500, -70.013
 969.5600, -71.050
 969.5700, -70.776
 969.5800, -70.484
 969.5900, -70.017
 969.6000, -70.203
 969.6100, -70.258
 969.6200, -70.583
 969.6300, -70.525
 969.6400, -70.836
 969.6500, -71.057
 969.6600, -71.069
 969.6700, -71.345
 969.6800, -70.517
 969.6900, -71.096
 969.7000, -71.605
 969.7100, -70.728
 969.7200, -70.618
 969.7300, -70.705
 969.7400, -70.908
 969.7500, -70.854
 969.7600, -71.323
 969.7700, -70.914
 969.7800, -71.329
 969.7900, -71.063
 969.8000, -71.863
 969.8100, -70.855
 969.8200, -71.196
 969.8300, -71.690
 969.8400, -70.685
 969.8500, -71.342
 969.8600, -71.543
 969.8700, -70.948
 969.8800, -71.333
 969.8900, -71.478
 969.9000, -71.685
 969.9100, -71.393
 969.9200, -71.212
 969.9300, -71.254
 969.9400, -71.302
 969.9500, -71.145
 969.9600, -71.697
 969.9700, -71.648
 969.9800, -71.334
 969.9900, -71.879
 970.0000, -70.913
 970.0100, -71.750
 970.0200, -71.376
 970.0300, -72.171
 970.0400, -71.447
 970.0500, -70.861
 970.0600, -71.354
 970.0700, -71.414
 970.0800, -71.817
 970.0900, -71.096
 970.1000, -71.393
 970.1100, -72.418
 970.1200, -72.064
 970.1300, -72.456
 970.1400, -72.372
 970.1500, -71.129
 970.1600, -71.417
 970.1700, -72.005
 970.1800, -71.331
 970.1900, -71.626
 970.2000, -72.416
 970.2100, -71.360
 970.2200, -72.205
 970.2300, -71.865
 970.2400, -72.591
 970.2500, -71.849
 970.2600, -73.176
 970.2700, -72.743
 970.2800, -72.771
 970.2900, -71.357
 970.3000, -71.538
 970.3100, -73.685
 970.3200, -73.201
 970.3300, -72.126
 970.3400, -72.800
 970.3500, -72.171
 970.3600, -72.813
 970.3700, -73.307
 970.3800, -73.079
 970.3900, -73.104
 970.4000, -73.162
 970.4100, -72.479
 970.4200, -74.836
 970.4300, -73.547
 970.4400, -73.033
 970.4500, -73.822
 970.4600, -72.766
 970.4700, -72.411
 970.4800, -73.321
 970.4900, -73.698
 970.5000, -72.960
 970.5100, -73.537
 970.5200, -72.416
 970.5300, -72.857
 970.5400, -72.856
 970.5500, -73.678
 970.5600, -73.775
 970.5700, -73.265
 970.5800, -73.391
 970.5900, -72.375
 970.6000, -73.518
 970.6100, -74.410
 970.6200, -73.381
 970.6300, -73.601
 970.6400, -72.616
 970.6500, -72.752
 970.6600, -72.687
 970.6700, -73.533
 970.6800, -72.529
 970.6900, -72.809
 970.7000, -73.667
 970.7100, -73.818
 970.7200, -72.964
 970.7300, -73.525
 970.7400, -73.324
 970.7500, -72.744
 970.7600, -73.171
 970.7700, -74.392
 970.7800, -73.853
 970.7900, -72.917
 970.8000, -72.173
 970.8100, -72.439
 970.8200, -72.992
 970.8300, -72.471
 970.8400, -72.379
 970.8500, -73.391
 970.8600, -73.755
 970.8700, -73.159
 970.8800, -72.696
 970.8900, -74.455
 970.9000, -73.452
 970.9100, -73.884
 970.9200, -73.341
 970.9300, -73.311
 970.9400, -73.058
 970.9500, -73.172
 970.9600, -73.692
 970.9700, -73.593
 970.9800, -73.055
 970.9900, -73.625
 971.0000, -74.062
 971.0100, -73.910
 971.0200, -73.590
 971.0300, -75.296
 971.0400, -72.576
 971.0500, -72.648
 971.0600, -73.923
 971.0700, -73.763
 971.0800, -73.409
 971.0900, -73.637
 971.1000, -73.907
 971.1100, -74.735
 971.1200, -74.934
 971.1300, -72.345
 971.1400, -73.248
 971.1500, -72.685
 971.1600, -73.156
 971.1700, -73.987
 971.1800, -73.689
 971.1900, -73.509
 971.2000, -73.479
 971.2100, -74.841
 971.2200, -73.444
 971.2300, -73.446
 971.2400, -74.804
 971.2500, -74.276
 971.2600, -74.434
 971.2700, -74.687
 971.2800, -74.802
 971.2900, -73.770
 971.3000, -76.300
 971.3100, -74.648
 971.3200, -74.802
 971.3300, -74.196
 971.3400, -73.409
 971.3500, -72.819
 971.3600, -74.952
 971.3700, -74.326
 971.3800, -73.588
 971.3900, -73.962
 971.4000, -74.501
 971.4100, -73.490
 971.4200, -73.454
 971.4300, -75.320
 971.4400, -75.632
 971.4500, -75.196
 971.4600, -73.928
 971.4700, -74.746
 971.4800, -74.631
 971.4900, -74.962
 971.5000, -74.285
 971.5100, -75.423
 971.5200, -73.312
 971.5300, -74.467
 971.5400, -74.127
 971.5500, -73.855
 971.5600, -73.570
 971.5700, -75.000
 971.5800, -74.580
 971.5900, -75.087
 971.6000, -74.339
 971.6100, -73.533
 971.6200, -74.495
 971.6300, -74.219
 971.6400, -74.372
 971.6500, -75.778
 971.6600, -74.317
 971.6700, -76.242
 971.6800, -74.785
 971.6900, -75.435
 971.7000, -74.558
 971.7100, -75.150
 971.7200, -75.291
 971.7300, -75.065
 971.7400, -75.706
 971.7500, -75.101
 971.7600, -76.755
 971.7700, -74.532
 971.7800, -74.107
 971.7900, -74.682
 971.8000, -76.060
 971.8100, -74.908
 971.8200, -75.103
 971.8300, -75.446
 971.8400, -74.121
 971.8500, -73.380
 971.8600, -75.690
 971.8700, -75.088
 971.8800, -76.091
 971.8900, -75.407
 971.9000, -75.255
 971.9100, -74.844
 971.9200, -74.768
 971.9300, -74.683
 971.9400, -75.859
 971.9500, -75.025
 971.9600, -74.300
 971.9700, -74.996
 971.9800, -75.339
 971.9900, -76.305
 972.0000, -75.321
 972.0100, -75.243
 972.0200, -76.801
 972.0300, -75.807
 972.0400, -74.416
 972.0500, -73.870
 972.0600, -76.394
 972.0700, -74.186
 972.0800, -75.383
 972.0900, -74.465
 972.1000, -74.143
 972.1100, -73.961
 972.1200, -73.879
 972.1300, -77.266
 972.1400, -77.033
 972.1500, -75.459
 972.1600, -75.310
 972.1700, -75.274
 972.1800, -75.415
 972.1900, -78.601
 972.2000, -75.291
 972.2100, -75.455
 972.2200, -75.596
 972.2300, -74.128
 972.2400, -74.406
 972.2500, -74.774
 972.2600, -73.577
 972.2700, -76.608
 972.2800, -76.493
 972.2900, -78.232
 972.3000, -75.156
 972.3100, -74.946
 972.3200, -75.590
 972.3300, -75.929
 972.3400, -76.035
 972.3500, -76.284
 972.3600, -75.635
 972.3700, -75.054
 972.3800, -76.147
 972.3900, -73.810
 972.4000, -78.369
 972.4100, -74.253
 972.4200, -75.685
 972.4300, -77.214
 972.4400, -75.359
 972.4500, -73.760
 972.4600, -73.737
 972.4700, -73.803
 972.4800, -76.690
 972.4900, -76.660
 972.5000, -76.332
 972.5100, -75.716
 972.5200, -76.072
 972.5300, -74.628
 972.5400, -76.341
 972.5500, -76.598
 972.5600, -78.079
 972.5700, -75.329
 972.5800, -74.995
 972.5900, -76.090
 972.6000, -74.402
 972.6100, -75.549
 972.6200, -75.613
 972.6300, -76.080
 972.6400, -75.354
 972.6500, -74.569
 972.6600, -73.917
 972.6700, -75.902
 972.6800, -77.479
 972.6900, -76.440
 972.7000, -76.209
 972.7100, -75.362
 972.7200, -75.879
 972.7300, -78.842
 972.7400, -75.826
 972.7500, -74.286
 972.7600, -74.328
 972.7700, -75.305
 972.7800, -76.059
 972.7900, -76.812
 972.8000, -74.800
 972.8100, -76.921
 972.8200, -76.212
 972.8300, -75.680
 972.8400, -76.993
 972.8500, -74.488
 972.8600, -76.776
 972.8700, -74.923
 972.8800, -77.237
 972.8900, -75.804
 972.9000, -74.060
 972.9100, -77.959
 972.9200, -76.893
 972.9300, -77.834
 972.9400, -77.287
 972.9500, -74.089
 972.9600, -75.970
 972.9700, -77.868
 972.9800, -76.177
 972.9900, -76.781
 973.0000, -75.424
 973.0100, -75.861
 973.0200, -75.512
 973.0300, -76.122
 973.0400, -77.218
 973.0500, -77.771
 973.0600, -76.151
 973.0700, -82.086
 973.0800, -73.755
 973.0900, -77.854
 973.1000, -75.175
 973.1100, -77.172
 973.1200, -77.420
 973.1300, -77.492
 973.1400, -77.079
 973.1500, -75.556
 973.1600, -76.065
 973.1700, -74.511
 973.1800, -76.771
 973.1900, -76.121
 973.2000, -75.909
 973.2100, -77.254
 973.2200, -76.607
 973.2300, -77.186
 973.2400, -77.013
 973.2500, -76.642
 973.2600, -77.480
 973.2700, -78.966
 973.2800, -76.092
 973.2900, -77.815
 973.3000, -75.111
 973.3100, -76.529
 973.3200, -74.955
 973.3300, -77.610
 973.3400, -78.146
 973.3500, -78.568
 973.3600, -77.437
 973.3700, -75.847
 973.3800, -76.388
 973.3900, -76.699
 973.4000, -76.895
 973.4100, -76.302
 973.4200, -77.113
 973.4300, -79.331
 973.4400, -77.697
 973.4500, -77.029
 973.4600, -77.439
 973.4700, -77.658
 973.4800, -77.902
 973.4900, -75.840
 973.5000, -76.851
 973.5100, -76.754
 973.5200, -76.618
 973.5300, -77.329
 973.5400, -77.899
 973.5500, -84.507
 973.5600, -76.933
 973.5700, -81.031
 973.5800, -75.923
 973.5900, -76.022
 973.6000, -76.710
 973.6100, -82.366
 973.6200, -78.435
 973.6300, -75.426
 973.6400, -76.805
 973.6500, -76.955
 973.6600, -78.315
 973.6700, -76.331
 973.6800, -75.581
 973.6900, -78.230
 973.7000, -78.030
 973.7100, -79.873
 973.7200, -76.834
 973.7300, -77.800
 973.7400, -77.764
 973.7500, -77.277
 973.7600, -77.252
 973.7700, -80.894
 973.7800, -77.160
 973.7900, -79.517
 973.8000, -78.707
 973.8100, -78.311
 973.8200, -75.874
 973.8300, -75.103
 973.8400, -79.714
 973.8500, -77.734
 973.8600, -78.589
 973.8700, -77.567
 973.8800, -76.725
 973.8900, -76.363
 973.9000, -75.721
 973.9100, -76.310
 973.9200, -82.086
 973.9300, -75.896
 973.9400, -78.224
 973.9500, -80.964
 973.9600, -78.980
 973.9700, -78.458
 973.9800, -75.800
 973.9900, -76.153
 974.0000, -76.353
 974.0100, -79.041
 974.0200, -78.336
 974.0300, -87.846
 974.0400, -77.657
 974.0500, -76.957
 974.0600, -76.387
 974.0700, -82.090
 974.0800, -78.117
 974.0900, -78.270
 974.1000, -76.968
 974.1100, -75.960
 974.1200, -75.222
 974.1300, -78.144
 974.1400, -77.022
 974.1500, -77.323
 974.1600, -78.275
 974.1700, -75.710
 974.1800, -75.936
 974.1900, -82.189
 974.2000, -75.685
 974.2100, -78.158
 974.2200, -85.091
 974.2300, -81.118
 974.2400, -76.727
 974.2500, -80.262
 974.2600, -76.906
 974.2700, -77.671
 974.2800, -80.244
 974.2900, -77.720
 974.3000, -78.630
 974.3100, -75.512
 974.3200, -77.970
 974.3300, -76.533
 974.3400, -77.388
 974.3500, -80.770
 974.3600, -79.046
 974.3700, -78.074
 974.3800, -77.139
 974.3900, -77.178
 974.4000, -80.493
 974.4100, -75.896
 974.4200, -80.089
 974.4300, -76.969
 974.4400, -77.598
 974.4500, -81.437
 974.4600, -75.553
 974.4700,-210.000
 974.4800, -76.921
 974.4900, -78.481
 974.5000, -78.827
 974.5100, -78.714
 974.5200, -77.915
 974.5300, -77.207
 974.5400, -79.560
 974.5500, -81.896
 974.5600, -84.416
 974.5700, -78.984
 974.5800, -80.854
 974.5900, -77.144
 974.6000, -77.445
 974.6100, -76.621
 974.6200, -79.117
 974.6300, -81.883
 974.6400, -78.238
 974.6500, -78.679
 974.6600, -75.073
 974.6700, -79.230
 974.6800,-210.000
 974.6900, -80.454
 974.7000, -89.588
 974.7100, -78.401
 974.7200, -79.688
 974.7300, -87.398
 974.7400, -75.812
 974.7500, -78.323
 974.7600, -79.424
 974.7700, -75.687
 974.7800, -77.354
 974.7900, -76.170
 974.8000, -77.941
 974.8100, -79.854
 974.8200, -78.073
 974.8300, -76.938
 974.8400, -76.978
 974.8500, -76.507
 974.8600, -75.213
 974.8700, -78.540
 974.8800, -82.639
 974.8900,-210.000
 974.9000, -81.810
 974.9100, -78.386
 974.9200, -76.751
 974.9300, -81.305
 974.9400, -81.335
 974.9500, -78.488
 974.9600, -76.709
 974.9700, -79.795
 974.9800, -82.125
 974.9900, -78.690
 975.0000, -75.911
 975.0100, -76.815
 975.0200, -80.075
 975.0300, -78.176
 975.0400, -79.070
 975.0500, -77.804
 975.0600, -77.795
 975.0700, -77.311
 975.0800, -78.374
 975.0900, -79.763
 975.1000, -77.915
 975.1100, -76.926
 975.1200, -79.220
 975.1300, -93.142
 975.1400, -85.044
 975.1500, -82.458
 975.1600, -78.770
 975.1700, -83.975
 975.1800, -76.699
 975.1900, -81.061
 975.2000, -81.608
 975.2100, -77.046
 975.2200, -78.093
 975.2300, -76.769
 975.2400, -81.259
 975.2500, -81.508
 975.2600, -79.490
 975.2700, -76.486
 975.2800, -77.319
 975.2900, -85.953
 975.3000,-210.000
 975.3100, -78.698
 975.3200, -76.246
 975.3300, -77.256
 975.3400, -77.198
 975.3500, -78.829
 975.3600, -77.444
 975.3700, -78.381
 975.3800, -78.640
 975.3900, -78.302
 975.4000, -80.572
 975.4100, -77.266
 975.4200, -80.764
 975.4300, -82.355
 975.4400, -77.581
 975.4500, -93.316
 975.4600, -79.882
 975.4700, -79.009
 975.4800, -77.309
 975.4900, -79.116
 975.5000, -77.596
 975.5100, -77.094
 975.5200, -84.291
 975.5300, -77.069
 975.5400, -78.685
 975.5500, -78.411
 975.5600,-210.000
 975.5700, -89.652
 975.5800, -80.305
 975.5900, -77.236
 975.6000, -79.366
 975.6100, -78.227
 975.6200, -79.291
 975.6300, -80.448
 975.6400, -75.160
 975.6500, -80.103
 975.6600, -79.371
 975.6700, -79.526
 975.6800, -76.721
 975.6900, -78.535
 975.7000,-210.000
 975.7100, -78.884
 975.7200, -76.416
 975.7300, -80.712
 975.7400, -78.692
 975.7500, -77.521
 975.7600,-210.000
 975.7700, -93.397
 975.7800, -82.823
 975.7900, -79.418
 975.8000, -77.835
 975.8100, -80.239
 975.8200, -75.860
 975.8300, -82.135
 975.8400, -80.411
 975.8500, -83.727
 975.8600, -82.138
 975.8700, -77.732
 975.8800, -77.526
 975.8900, -83.233
 975.9000, -77.476
 975.9100, -83.048
 975.9200, -79.194
 975.9300, -76.376
 975.9400, -76.856
 975.9500,-210.000
 975.9600, -77.956
 975.9700, -83.000
 975.9800, -82.931
 975.9900, -82.266
 976.0000, -92.423
 976.0100, -79.215
 976.0200, -76.230
 976.0300, -81.112
 976.0400, -77.196
 976.0500, -82.768
 976.0600, -90.905
 976.0700, -82.557
 976.0800, -77.238
 976.0900, -76.526
 976.1000, -81.207
 976.1100, -80.402
 976.1200, -90.559
 976.1300, -79.698
 976.1400, -79.867
 976.1500, -87.687
 976.1600, -89.012
 976.1700, -77.603
 976.1800, -77.279
 976.1900, -75.830
 976.2000, -78.817
 976.2100, -77.829
 976.2200, -77.924
 976.2300, -79.666
 976.2400, -84.839
 976.2500, -79.932
 976.2600, -80.307
 976.2700,-210.000
 976.2800, -80.714
 976.2900, -77.378
 976.3000, -78.732
 976.3100, -91.143
 976.3200, -81.973
 976.3300, -83.040
 976.3400, -82.087
 976.3500, -75.759
 976.3600, -76.453
 976.3700, -77.830
 976.3800, -79.010
 976.3900, -82.610
 976.4000,-210.000
 976.4100, -78.771
 976.4200, -77.500
 976.4300, -81.244
 976.4400, -79.746
 976.4500, -82.550
 976.4600, -81.412
 976.4700, -83.213
 976.4800, -87.355
 976.4900, -77.969
 976.5000, -81.220
 976.5100, -80.632
 976.5200, -82.107
 976.5300, -77.498
 976.5400, -78.039
 976.5500, -91.245
 976.5600,-210.000
 976.5700, -80.609
 976.5800, -84.453
 976.5900, -77.909
 976.6000, -88.081
 976.6100, -76.430
 976.6200, -80.988
 976.6300, -81.102
 976.6400, -80.774
 976.6500, -80.347
 976.6600, -79.894
 976.6700, -81.425
 976.6800, -78.617
 976.6900, -82.631
 976.7000, -80.364
 976.7100,-210.000
 976.7200, -76.308
 976.7300, -76.724
 976.7400,-210.000
 976.7500, -78.978
 976.7600, -81.164
 976.7700, -78.774
 976.7800, -82.233
 976.7900, -78.831
 976.8000, -83.192
 976.8100, -81.134
 976.8200, -75.941
 976.8300, -79.736
 976.8400, -79.490
 976.8500, -78.526
 976.8600, -77.783
 976.8700, -78.210
 976.8800, -81.235
 976.8900,-210.000
 976.9000, -82.729
 976.9100, -78.632
 976.9200, -77.137
 976.9300, -78.760
 976.9400, -79.268
 976.9500, -80.074
 976.9600, -86.396
 976.9700,-210.000
 976.9800, -79.847
 976.9900, -85.498
 977.0000, -80.746
 977.0100, -77.335
 977.0200, -85.756
 977.0300, -79.106
 977.0400,-210.000
 977.0500,-210.000
 977.0600, -79.452
 977.0700, -79.130
 977.0800, -80.052
 977.0900, -80.333
 977.1000, -76.529
 977.1100, -78.233
 977.1200,-210.000
 977.1300, -81.585
 977.1400, -91.654
 977.1500, -80.873
 977.1600, -76.342
 977.1700, -78.265
 977.1800, -78.641
 977.1900, -80.648
 977.2000, -82.327
 977.2100, -81.645
 977.2200, -79.651
 977.2300, -82.383
 977.2400, -80.248
 977.2500, -81.179
 977.2600, -85.912
 977.2700, -77.576
 977.2800, -80.492
 977.2900, -82.614
 977.3000, -79.879
 977.3100, -77.113
 977.3200, -77.929
 977.3300, -78.179
 977.3400,-210.000
 977.3500, -83.564
 977.3600,-210.000
 977.3700, -79.820
 977.3800, -81.395
 977.3900, -75.973
 977.4000, -79.943
 977.4100, -75.665
 977.4200,-210.000
 977.4300, -79.249
 977.4400, -77.302
 977.4500, -82.636
 977.4600, -77.317
 977.4700, -79.792
 977.4800, -79.769
 977.4900, -77.210
 977.5000, -79.002
 977.5100, -78.712
 977.5200, -78.907
 977.5300, -79.554
 977.5400,-210.000
 977.5500, -76.006
 977.5600, -80.886
 977.5700, -80.917
 977.5800,-210.000
 977.5900, -84.848
 977.6000, -76.768
 977.6100, -84.606
 977.6200, -76.834
 977.6300, -81.536
 977.6400, -88.857
 977.6500, -81.794
 977.6600, -81.537
 977.6700, -78.801
 977.6800, -77.686
 977.6900, -80.793
 977.7000,-210.000
 977.7100, -79.462
 977.7200, -85.409
 977.7300, -82.086
 977.7400, -79.247
 977.7500, -82.623
 977.7600, -81.034
 977.7700,-210.000
 977.7800, -87.586
 977.7900, -80.699
 977.8000, -80.537
 977.8100, -77.252
 977.8200, -76.792
 977.8300, -78.768
 977.8400, -80.049
 977.8500, -85.336
 977.8600, -87.793
 977.8700, -84.542
 977.8800, -80.940
 977.8900, -82.397
 977.9000, -81.543
 977.9100,-210.000
 977.9200, -77.855
 977.9300, -80.812
 977.9400,-210.000
 977.9500, -79.867
 977.9600, -83.672
 977.9700, -78.341
 977.9800, -78.196
 977.9900, -79.478
 978.0000, -82.598
 978.0100, -79.134
 978.0200, -79.163
 978.0300,-210.000
 978.0400, -78.665
 978.0500, -80.260
 978.0600, -86.945
 978.0700, -78.716
 978.0800, -86.119
 978.0900, -79.541
 978.1000, -78.396
 978.1100, -79.674
 978.1200, -78.875
 978.1300,-210.000
 978.1400, -96.029
 978.1500, -78.324
 978.1600, -80.512
 978.1700, -77.493
 978.1800, -82.790
 978.1900, -83.663
 978.2000, -81.133
 978.2100, -78.884
 978.2200, -81.739
 978.2300, -79.042
 978.2400, -80.985
 978.2500,-210.000
 978.2600, -82.194
 978.2700, -76.444
 978.2800, -81.205
 978.2900, -78.374
 978.3000,-210.000
 978.3100, -81.239
 978.3200, -80.773
 978.3300, -77.991
 978.3400, -84.303
 978.3500, -82.999
 978.3600, -78.959
 978.3700, -81.110
 978.3800, -93.241
 978.3900, -83.483
 978.4000, -79.312
 978.4100, -86.842
 978.4200, -80.083
 978.4300, -84.661
 978.4400, -78.121
 978.4500, -81.844
 978.4600, -82.820
 978.4700, -84.117
 978.4800, -78.436
 978.4900, -87.220
 978.5000,-210.000
 978.5100, -79.043
 978.5200, -81.911
 978.5300,-210.000
 978.5400, -79.732
 978.5500, -83.550
 978.5600, -77.155
 978.5700, -79.071
 978.5800, -79.368
 978.5900,-210.000
 978.6000, -79.180
 978.6100, -76.937
 978.6200, -78.319
 978.6300, -78.092
 978.6400, -80.298
 978.6500, -79.570
 978.6600, -98.494
 978.6700, -85.283
 978.6800, -79.684
 978.6900, -90.979
 978.7000, -76.765
 978.7100, -76.635
 978.7200, -87.150
 978.7300,-210.000
 978.7400, -79.847
 978.7500,-210.000
 978.7600, -83.817
 978.7700, -85.653
 978.7800, -78.459
 978.7900, -76.554
 978.8000, -78.632
 978.8100, -81.151
 978.8200, -79.743
 978.8300, -79.425
 978.8400, -76.896
 978.8500, -79.219
 978.8600, -81.455
 978.8700, -82.372
 978.8800, -78.843
 978.8900, -81.268
 978.9000,-210.000
 978.9100, -82.016
 978.9200,-210.000
 978.9300,-210.000
 978.9400, -82.327
 978.9500, -80.324
 978.9600, -78.866
 978.9700, -80.685
 978.9800, -76.214
 978.9900, -77.543
 979.0000, -78.408
 979.0100, -86.191
 979.0200, -82.395
 979.0300, -84.911
 979.0400,-210.000
 979.0500, -81.264
 979.0600, -82.826
 979.0700, -81.102
 979.0800, -84.108
 979.0900, -84.367
 979.1000, -79.828
 979.1100, -80.013
 979.1200, -80.568
 979.1300,-210.000
 979.1400, -77.970
 979.1500, -81.852
 979.1600, -77.684
 979.1700, -78.448
 979.1800,-210.000
 979.1900, -85.208
 979.2000, -76.657
 979.2100, -79.294
 979.2200, -79.219
 979.2300, -80.470
 979.2400, -78.759
 979.2500,-210.000
 979.2600, -83.868
 979.2700, -78.053
 979.2800,-210.000
 979.2900, -84.660
 979.3000, -83.714
 979.3100, -81.169
 979.3200, -86.896
 979.3300, -81.050
 979.3400, -79.543
 979.3500, -76.676
 979.3600,-210.000
 979.3700,-210.000
 979.3800, -85.626
 979.3900, -78.712
 979.4000,-210.000
 979.4100,-210.000
 979.4200, -78.914
 979.4300, -83.555
 979.4400,-210.000
 979.4500, -77.494
 979.4600, -81.888
 979.4700, -80.674
 979.4800, -78.056
 979.4900, -80.545
 979.5000, -78.543
 979.5100, -79.378
 979.5200,-210.000
 979.5300, -81.832
 979.5400, -82.918
 979.5500, -78.192
 979.5600, -82.798
 979.5700, -81.197
 979.5800, -78.299
 979.5900,-210.000
 979.6000, -81.007
 979.6100,-210.000
 979.6200, -82.545
 979.6300, -87.770
 979.6400, -87.688
 979.6500, -82.572
 979.6600, -91.842
 979.6700, -77.830
 979.6800, -81.788
 979.6900, -77.114
 979.7000, -83.145
 979.7100, -80.152
 979.7200, -81.647
 979.7300, -80.582
 979.7400, -80.519
 979.7500, -80.129
 979.7600, -77.834
 979.7700, -80.789
 979.7800, -83.301
 979.7900,-210.000
 979.8000, -77.719
 979.8100,-210.000
 979.8200, -80.036
 979.8300, -81.871
 979.8400, -84.529
 979.8500, -84.710
 979.8600, -79.032
 979.8700, -91.301
 979.8800,-210.000
 979.8900, -80.282
 979.9000, -82.436
 979.9100,-210.000
 979.9200,-210.000
 979.9300, -79.075
 979.9400, -88.030
 979.9500, -81.203
 979.9600, -80.128
 979.9700, -83.056
 979.9800,-210.000
 979.9900, -85.523
 980.0000, -76.581
 980.0100, -83.657
 980.0200, -79.255
 980.0300, -82.092
 980.0400, -79.489
 980.0500, -78.683
 980.0600, -89.666
 980.0700, -79.475
 980.0800,-210.000
 980.0900, -90.896
 980.1000, -79.799
 980.1100, -83.191
 980.1200, -83.083
 980.1300, -81.996
 980.1400, -92.118
 980.1500, -76.800
 980.1600, -85.483
 980.1700, -82.983
 980.1800, -84.114
 980.1900, -76.598
 980.2000, -81.885
 980.2100, -76.508
 980.2200, -80.138
 980.2300, -79.142
 980.2400, -85.737
 980.2500, -83.917
 980.2600, -93.237
 980.2700, -82.652
 980.2800,-210.000
 980.2900, -81.930
 980.3000, -79.906
 980.3100, -79.557
 980.3200, -79.337
 980.3300,-210.000
 980.3400, -81.051
 980.3500, -80.943
 980.3600, -79.837
 980.3700, -80.233
 980.3800, -81.473
 980.3900,-210.000
 980.4000,-210.000
 980.4100, -76.062
 980.4200, -84.637
 980.4300,-210.000
 980.4400, -80.754
 980.4500, -87.576
 980.4600, -77.697
 980.4700, -81.487
 980.4800, -87.870
 980.4900,-210.000
 980.5000, -90.408
 980.5100,-210.000
 980.5200, -78.040
 980.5300, -79.403
 980.5400, -84.530
 980.5500, -82.215
 980.5600, -85.869
 980.5700, -81.596
 980.5800, -83.738
 980.5900, -82.328
 980.6000, -80.046
 980.6100, -85.175
 980.6200, -77.663
 980.6300, -78.883
 980.6400,-210.000
 980.6500, -79.829
 980.6600, -86.410
 980.6700, -79.262
 980.6800, -79.454
 980.6900, -80.258
 980.7000, -79.693
 980.7100, -84.274
 980.7200, -80.668
 980.7300, -79.492
 980.7400,-210.000
 980.7500, -85.155
 980.7600,-210.000
 980.7700, -82.507
 980.7800, -86.770
 980.7900, -78.898
 980.8000, -78.213
 980.8100, -80.208
 980.8200, -78.780
 980.8300,-210.000
 980.8400, -78.530
 980.8500, -84.524
 980.8600, -80.384
 980.8700, -84.191
 980.8800, -81.630
 980.8900, -87.164
 980.9000, -78.890
 980.9100, -80.036
 980.9200, -79.430
 980.9300,-210.000
 980.9400, -80.780
 980.9500, -84.351
 980.9600, -78.133
 980.9700, -82.299
 980.9800, -82.612
 980.9900, -79.428
 981.0000, -80.168
 981.0100, -84.754
 981.0200,-210.000
 981.0300,-210.000
 981.0400, -79.492
 981.0500, -78.831
 981.0600,-210.000
 981.0700, -79.635
 981.0800, -88.048
 981.0900, -79.447
 981.1000, -77.594
 981.1100, -82.863
 981.1200, -81.036
 981.1300, -82.930
 981.1400, -79.594
 981.1500,-104.670
 981.1600, -80.917
 981.1700, -78.815
 981.1800, -82.870
 981.1900, -83.811
 981.2000, -78.348
 981.2100, -80.110
 981.2200, -87.330
 981.2300, -92.267
 981.2400, -77.295
 981.2500, -78.504
 981.2600, -82.942
 981.2700,-210.000
 981.2800, -82.362
 981.2900, -84.388
 981.3000, -78.013
 981.3100, -77.273
 981.3200, -76.520
 981.3300, -77.475
 981.3400, -79.990
 981.3500, -80.481
 981.3600, -80.692
 981.3700, -80.109
 981.3800, -75.729
 981.3900, -78.997
 981.4000, -86.682
 981.4100, -94.250
 981.4200, -78.211
 981.4300, -81.531
 981.4400, -81.066
 981.4500, -79.424
 981.4600, -82.680
 981.4700, -81.800
 981.4800,-210.000
 981.4900,-210.000
 981.5000, -89.185
 981.5100,-210.000
 981.5200, -78.690
 981.5300, -82.779
 981.5400, -86.032
 981.5500, -80.428
 981.5600, -87.263
 981.5700, -94.127
 981.5800, -81.741
 981.5900, -79.464
 981.6000, -84.602
 981.6100,-210.000
 981.6200, -78.846
 981.6300,-210.000
 981.6400, -83.960
 981.6500, -81.411
 981.6600, -77.339
 981.6700, -81.434
 981.6800, -82.173
 981.6900, -80.393
 981.7000, -77.111
 981.7100, -75.914
 981.7200, -82.389
 981.7300,-210.000
 981.7400, -77.899
 981.7500,-210.000
 981.7600, -80.649
 981.7700,-210.000
 981.7800, -84.876
 981.7900, -78.409
 981.8000, -78.925
 981.8100, -78.031
 981.8200,-210.000
 981.8300, -81.144
 981.8400, -81.817
 981.8500,-210.000
 981.8600, -78.325
 981.8700, -80.465
 981.8800, -80.125
 981.8900, -79.294
 981.9000, -78.844
 981.9100, -81.202
 981.9200,-210.000
 981.9300, -79.202
 981.9400, -79.699
 981.9500,-210.000
 981.9600, -80.219
 981.9700, -77.407
 981.9800, -80.121
 981.9900, -81.608
 982.0000, -79.856
 982.0100, -76.626
 982.0200, -77.506
 982.0300, -85.886
 982.0400, -81.685
 982.0500,-210.000
 982.0600, -78.118
 982.0700, -83.185
 982.0800, -82.214
 982.0900,-210.000
 982.1000, -80.105
 982.1100, -80.417
 982.1200, -79.902
 982.1300, -90.404
 982.1400,-210.000
 982.1500,-210.000
 982.1600, -90.114
 982.1700,-210.000
 982.1800, -78.985
 982.1900, -91.043
 982.2000, -85.696
 982.2100, -93.003
 982.2200, -81.947
 982.2300, -79.160
 982.2400, -87.140
 982.2500, -77.290
 982.2600, -85.407
 982.2700, -80.833
 982.2800, -79.850
 982.2900, -79.797
 982.3000, -86.372
 982.3100, -77.695
 982.3200, -85.894
 982.3300,-210.000
 982.3400, -77.248
 982.3500,-210.000
 982.3600, -78.955
 982.3700, -83.286
 982.3800,-210.000
 982.3900, -78.454
 982.4000, -87.743
 982.4100, -78.758
 982.4200, -80.091
 982.4300, -82.098
 982.4400, -80.151
 982.4500, -81.042
 982.4600,-210.000
 982.4700, -92.474
 982.4800, -86.836
 982.4900,-210.000
 982.5000, -79.951
 982.5100, -89.826
 982.5200, -77.313
 982.5300, -83.004
 982.5400, -93.523
 982.5500, -78.553
 982.5600, -84.278
 982.5700,-210.000
 982.5800, -78.122
 982.5900,-210.000
 982.6000,-210.000
 982.6100,-210.000
 982.6200, -80.062
 982.6300, -81.414
 982.6400, -84.105
 982.6500, -78.350
 982.6600, -84.082
 982.6700, -84.646
 982.6800, -84.412
 982.6900, -80.625
 982.7000, -87.718
 982.7100, -79.008
 982.7200, -77.602
 982.7300, -83.836
 982.7400, -81.658
 982.7500, -84.328
 982.7600, -84.364
 982.7700, -83.273
 982.7800, -78.783
 982.7900, -84.100
 982.8000, -81.230
 982.8100, -81.513
 982.8200, -86.388
 982.8300, -90.022
 982.8400, -78.302
 982.8500, -83.968
 982.8600,-210.000
 982.8700, -85.767
 982.8800, -81.432
 982.8900, -80.033
 982.9000, -89.074
 982.9100, -78.876
 982.9200,-210.000
 982.9300, -81.465
 982.9400, -80.843
 982.9500, -91.129
 982.9600, -80.353
 982.9700,-210.000
 982.9800,-210.000
 982.9900,-210.000
 983.0000,-210.000
 983.0100, -82.815
 983.0200, -81.615
 983.0300, -84.886
 983.0400,-210.000
 983.0500,-210.000
 983.0600,-210.000
 983.0700, -80.038
 983.0800, -80.101
 983.0900,-101.471
 983.1000, -84.196
 983.1100,-210.000
 983.1200, -78.085
 983.1300, -79.117
 983.1400, -87.246
 983.1500, -90.595
 983.1600, -79.105
 983.1700,-210.000
 983.1800,-210.000
 983.1900, -83.753
 983.2000, -78.871
 983.2100,-210.000
 983.2200, -81.779
 983.2300, -82.185
 983.2400, -80.451
 983.2500, -92.283
 983.2600,-210.000
 983.2700, -88.357
 983.2800, -79.145
 983.2900, -83.124
 983.3000, -77.286
 983.3100, -79.979
 983.3200, -84.385
 983.3300, -84.618
 983.3400, -85.500
 983.3500, -85.177
 983.3600, -81.401
 983.3700,-210.000
 983.3800, -82.193
 983.3900, -81.104
 983.4000,-210.000
 983.4100,-210.000
 983.4200, -78.544
 983.4300,-210.000
 983.4400, -79.162
 983.4500,-210.000
 983.4600,-210.000
 983.4700, -81.431
 983.4800, -82.296
 983.4900, -78.233
 983.5000, -88.199
 983.5100, -78.529
 983.5200, -82.980
 983.5300, -80.990
 983.5400, -79.377
 983.5500, -83.318
 983.5600, -83.434
 983.5700, -84.527
 983.5800, -83.211
 983.5900, -82.964
 983.6000, -78.638
 983.6100, -79.547
 983.6200,-210.000
 983.6300, -81.959
 983.6400, -78.410
 983.6500, -77.175
 983.6600, -77.945
 983.6700, -86.149
 983.6800, -77.849
 983.6900, -78.526
 983.7000, -79.140
 983.7100, -78.387
 983.7200, -81.380
 983.7300, -79.098
 983.7400, -76.616
 983.7500, -82.562
 983.7600, -84.691
 983.7700, -78.179
 983.7800, -78.452
 983.7900, -81.408
 983.8000, -87.875
 983.8100, -83.039
 983.8200, -85.339
 983.8300, -78.904
 983.8400, -80.786
 983.8500, -81.450
 983.8600, -78.673
 983.8700, -79.092
 983.8800, -83.993
 983.8900, -79.174
 983.9000, -78.233
 983.9100, -83.669
 983.9200, -84.726
 983.9300, -79.582
 983.9400, -93.269
 983.9500, -77.948
 983.9600, -83.546
 983.9700, -78.967
 983.9800, -82.230
 983.9900,-210.000
 984.0000, -82.137
 984.0100, -84.278
 984.0200, -86.967
 984.0300,-210.000
 984.0400, -88.321
 984.0500, -80.805
 984.0600, -79.521
 984.0700, -82.223
 984.0800, -82.478
 984.0900,-210.000
 984.1000, -81.011
 984.1100, -84.075
 984.1200, -87.387
 984.1300, -87.850
 984.1400, -83.327
 984.1500, -77.927
 984.1600, -82.773
 984.1700, -86.164
 984.1800, -82.566
 984.1900, -79.599
 984.2000, -81.445
 984.2100, -78.873
 984.2200, -81.330
 984.2300, -84.432
 984.2400,-210.000
 984.2500,-210.000
 984.2600, -88.490
 984.2700, -84.051
 984.2800, -78.819
 984.2900, -76.844
 984.3000, -78.384
 984.3100, -80.537
 984.3200, -86.909
 984.3300, -77.842
 984.3400, -80.135
 984.3500,-210.000
 984.3600,-210.000
 984.3700, -83.645
 984.3800, -80.012
 984.3900, -80.340
 984.4000, -81.714
 984.4100, -77.416
 984.4200,-210.000
 984.4300, -79.362
 984.4400,-210.000
 984.4500, -90.294
 984.4600, -80.735
 984.4700, -94.642
 984.4800, -78.071
 984.4900, -82.564
 984.5000, -81.914
 984.5100,-210.000
 984.5200, -80.531
 984.5300, -79.182
 984.5400, -81.204
 984.5500, -78.630
 984.5600,-210.000
 984.5700,-210.000
 984.5800, -90.211
 984.5900, -83.660
 984.6000, -80.543
 984.6100,-210.000
 984.6200, -93.301
 984.6300, -80.289
 984.6400, -89.736
 984.6500, -82.706
 984.6600,-210.000
 984.6700, -80.643
 984.6800, -81.117
 984.6900, -79.389
 984.7000, -79.797
 984.7100, -85.076
 984.7200, -77.737
 984.7300, -84.721
 984.7400, -86.566
 984.7500, -79.907
 984.7600, -87.563
 984.7700,-210.000
 984.7800, -79.298
 984.7900, -83.377
 984.8000, -80.600
 984.8100, -83.856
 984.8200, -81.835
 984.8300, -79.760
 984.8400, -80.082
 984.8500, -88.429
 984.8600, -85.647
 984.8700,-210.000
 984.8800, -77.460
 984.8900, -80.318
 984.9000,-210.000
 984.9100,-210.000
 984.9200, -89.696
 984.9300, -79.494
 984.9400, -83.096
 984.9500,-210.000
 984.9600, -81.069
 984.9700,-210.000
 984.9800,-210.000
 984.9900, -81.157
 985.0000, -82.413
 985.0100, -81.899
 985.0200, -76.966
 985.0300,-210.000
 985.0400, -84.839
 985.0500,-210.000
 985.0600, -93.529
 985.0700, -81.636
 985.0800, -80.684
 985.0900, -79.983
 985.1000, -81.043
 985.1100, -79.685
 985.1200, -81.667
 985.1300, -80.337
 985.1400, -84.370
 985.1500, -77.235
 985.1600, -81.586
 985.1700,-210.000
 985.1800, -84.809
 985.1900,-210.000
 985.2000, -85.869
 985.2100, -83.069
 985.2200, -79.035
 985.2300, -78.927
 985.2400, -81.668
 985.2500,-210.000
 985.2600,-210.000
 985.2700, -76.477
 985.2800, -81.997
 985.2900, -81.328
 985.3000,-210.000
 985.3100,-108.425
 985.3200, -83.560
 985.3300, -76.683
 985.3400, -79.979
 985.3500, -85.381
 985.3600, -82.342
 985.3700, -81.513
 985.3800, -85.656
 985.3900, -83.428
 985.4000, -85.997
 985.4100,-210.000
 985.4200, -85.057
 985.4300, -81.445
 985.4400, -82.031
 985.4500, -87.582
 985.4600, -77.998
 985.4700, -83.574
 985.4800, -87.445
 985.4900, -82.771
 985.5000, -81.785
 985.5100, -81.896
 985.5200, -80.511
 985.5300, -81.358
 985.5400, -79.198
 985.5500, -81.253
 985.5600, -86.357
 985.5700, -79.700
 985.5800,-210.000
 985.5900, -82.734
 985.6000,-210.000
 985.6100, -79.271
 985.6200, -79.258
 985.6300, -79.469
 985.6400, -80.470
 985.6500, -79.178
 985.6600, -84.137
 985.6700, -78.617
 985.6800, -79.588
 985.6900,-210.000
 985.7000, -81.461
 985.7100, -79.302
 985.7200, -81.383
 985.7300, -79.954
 985.7400,-210.000
 985.7500,-210.000
 985.7600, -75.956
 985.7700, -79.327
 985.7800, -85.994
 985.7900, -80.510
 985.8000,-210.000
 985.8100, -84.298
 985.8200, -76.521
 985.8300, -79.685
 985.8400,-210.000
 985.8500, -78.170
 985.8600, -78.712
 985.8700, -83.893
 985.8800, -83.630
 985.8900, -82.123
 985.9000, -81.266
 985.9100, -75.889
 985.9200, -82.857
 985.9300, -79.326
 985.9400,-210.000
 985.9500, -78.537
 985.9600, -78.662
 985.9700, -80.606
 985.9800,-210.000
 985.9900, -78.805
 986.0000,-210.000
 986.0100, -78.110
 986.0200, -82.490
 986.0300, -80.242
 986.0400, -82.235
 986.0500, -77.246
 986.0600, -78.657
 986.0700, -86.635
 986.0800, -93.016
 986.0900, -84.777
 986.1000, -85.380
 986.1100, -81.763
 986.1200, -81.478
 986.1300, -81.163
 986.1400, -81.142
 986.1500, -80.504
 986.1600, -77.420
 986.1700, -79.325
 986.1800,-210.000
 986.1900, -85.931
 986.2000, -81.737
 986.2100, -82.138
 986.2200,-210.000
 986.2300, -82.558
 986.2400, -78.100
 986.2500,-210.000
 986.2600,-210.000
 986.2700, -79.874
 986.2800, -80.137
 986.2900, -79.321
 986.3000, -76.833
 986.3100, -83.018
 986.3200,-210.000
 986.3300, -98.113
 986.3400, -80.838
 986.3500, -78.477
 986.3600, -82.929
 986.3700, -79.863
 986.3800, -85.081
 986.3900, -78.871
 986.4000, -85.458
 986.4100, -81.284
 986.4200, -80.452
 986.4300, -84.135
 986.4400, -81.125
 986.4500, -80.237
 986.4600, -83.417
 986.4700,-210.000
 986.4800, -80.752
 986.4900, -81.911
 986.5000, -77.169
 986.5100, -81.518
 986.5200, -83.383
 986.5300, -81.687
 986.5400, -82.409
 986.5500, -79.456
 986.5600, -95.213
 986.5700, -83.365
 986.5800, -81.952
 986.5900, -78.358
 986.6000, -85.194
 986.6100, -83.448
 986.6200, -77.008
 986.6300, -80.364
 986.6400, -79.362
 986.6500,-210.000
 986.6600, -79.048
 986.6700, -79.708
 986.6800,-210.000
 986.6900, -78.326
 986.7000,-210.000
 986.7100, -81.425
 986.7200, -78.649
 986.7300, -81.647
 986.7400, -89.410
 986.7500, -80.520
 986.7600, -79.437
 986.7700, -80.667
 986.7800, -85.866
 986.7900,-210.000
 986.8000,-210.000
 986.8100,-210.000
 986.8200, -83.567
 986.8300, -78.065
 986.8400, -85.478
 986.8500, -83.905
 986.8600, -80.467
 986.8700, -83.819
 986.8800, -79.358
 986.8900, -83.196
 986.9000, -86.367
 986.9100, -93.393
 986.9200, -89.751
 986.9300, -78.305
 986.9400, -76.869
 986.9500,-210.000
 986.9600, -87.390
 986.9700, -84.084
 986.9800, -88.567
 986.9900, -80.277
 987.0000, -80.723
 987.0100, -80.598
 987.0200, -80.228
 987.0300, -84.619
 987.0400,-210.000
 987.0500, -80.888
 987.0600, -90.661
 987.0700, -78.525
 987.0800, -85.519
 987.0900, -80.239
 987.1000, -80.532
 987.1100,-210.000
 987.1200,-210.000
 987.1300, -78.694
 987.1400, -85.132
 987.1500,-105.889
 987.1600,-210.000
 987.1700, -79.986
 987.1800, -80.749
 987.1900, -84.483
 987.2000, -84.232
 987.2100, -76.389
 987.2200,-210.000
 987.2300, -83.179
 987.2400,-210.000
 987.2500, -77.764
 987.2600, -84.486
 987.2700, -84.281
 987.2800,-210.000
 987.2900, -86.392
 987.3000,-210.000
 987.3100, -77.688
 987.3200, -82.381
 987.3300, -83.816
 987.3400,-210.000
 987.3500, -78.370
 987.3600,-210.000
 987.3700, -84.951
 987.3800,-210.000
 987.3900, -82.376
 987.4000,-210.000
 987.4100, -87.431
 987.4200, -79.710
 987.4300, -79.738
 987.4400, -86.313
 987.4500, -81.731
 987.4600, -81.769
 987.4700, -82.575
 987.4800, -81.364
 987.4900, -77.667
 987.5000,-210.000
 987.5100, -84.272
 987.5200, -78.876
 987.5300, -90.820
 987.5400, -82.697
 987.5500, -79.865
 987.5600, -79.797
 987.5700, -76.984
 987.5800, -80.418
 987.5900, -81.620
 987.6000, -82.004
 987.6100, -80.198
 987.6200, -77.654
 987.6300, -80.719
 987.6400, -78.636
 987.6500, -80.156
 987.6600, -77.792
 987.6700, -78.682
 987.6800, -78.976
 987.6900, -81.834
 987.7000, -84.231
 987.7100, -79.016
 987.7200, -80.607
 987.7300, -80.398
 987.7400,-210.000
 987.7500,-210.000
 987.7600, -78.602
 987.7700,-210.000
 987.7800,-210.000
 987.7900, -92.048
 987.8000, -82.651
 987.8100, -89.458
 987.8200, -78.445
 987.8300,-210.000
 987.8400,-210.000
 987.8500, -79.983
 987.8600,-210.000
 987.8700, -84.607
 987.8800,-210.000
 987.8900, -79.563
 987.9000, -93.406
 987.9100, -77.973
 987.9200, -78.279
 987.9300,-210.000
 987.9400, -81.096
 987.9500, -78.425
 987.9600, -78.697
 987.9700, -79.658
 987.9800,-210.000
 987.9900,-210.000
 988.0000, -81.054
 988.0100, -80.944
 988.0200, -81.670
 988.0300, -85.758
 988.0400, -81.672
 988.0500,-210.000
 988.0600, -79.456
 988.0700, -79.958
 988.0800, -78.212
 988.0900, -78.901
 988.1000,-210.000
 988.1100,-210.000
 988.1200,-210.000
 988.1300, -82.809
 988.1400, -85.117
 988.1500, -82.895
 988.1600, -89.139
 988.1700, -79.741
 988.1800, -77.978
 988.1900,-210.000
 988.2000,-210.000
 988.2100, -85.585
 988.2200, -82.070
 988.2300, -78.203
 988.2400, -77.319
 988.2500,-210.000
 988.2600, -77.556
 988.2700, -80.680
 988.2800, -83.880
 988.2900, -82.832
 988.3000, -79.554
 988.3100, -78.493
 988.3200, -80.048
 988.3300, -85.634
 988.3400, -89.153
 988.3500,-210.000
 988.3600, -79.860
 988.3700, -84.275
 988.3800, -79.386
 988.3900, -92.118
 988.4000, -83.036
 988.4100,-210.000
 988.4200, -85.249
 988.4300, -86.784
 988.4400, -88.242
 988.4500, -89.302
 988.4600,-210.000
 988.4700, -86.918
 988.4800, -77.431
 988.4900, -81.006
 988.5000, -83.838
 988.5100, -83.053
 988.5200,-210.000
 988.5300, -81.125
 988.5400,-210.000
 988.5500, -78.119
 988.5600,-210.000
 988.5700,-210.000
 988.5800, -79.384
 988.5900, -81.876
 988.6000, -78.618
 988.6100, -78.470
 988.6200, -78.135
 988.6300, -82.206
 988.6400, -80.380
 988.6500, -78.011
 988.6600, -82.406
 988.6700, -92.766
 988.6800, -84.273
 988.6900, -89.602
 988.7000,-210.000
 988.7100, -79.093
 988.7200,-210.000
 988.7300, -79.503
 988.7400,-210.000
 988.7500, -81.246
 988.7600,-210.000
 988.7700, -79.608
 988.7800, -81.299
 988.7900, -83.907
 988.8000, -79.288
 988.8100,-210.000
 988.8200, -79.864
 988.8300, -79.576
 988.8400, -82.119
 988.8500, -85.822
 988.8600, -81.259
 988.8700,-210.000
 988.8800,-210.000
 988.8900, -79.732
 988.9000, -93.105
 988.9100, -82.155
 988.9200, -81.209
 988.9300, -81.405
 988.9400, -81.734
 988.9500,-210.000
 988.9600, -80.314
 988.9700, -80.199
 988.9800, -79.646
 988.9900, -81.859
 989.0000,-210.000
 989.0100, -76.838
 989.0200, -85.912
 989.0300, -79.247
 989.0400,-210.000
 989.0500, -87.564
 989.0600, -83.083
 989.0700,-210.000
 989.0800,-210.000
 989.0900,-210.000
 989.1000, -80.633
 989.1100, -79.885
 989.1200, -81.097
 989.1300, -76.869
 989.1400, -87.092
 989.1500, -80.565
 989.1600, -88.494
 989.1700, -89.220
 989.1800, -80.009
 989.1900, -93.857
 989.2000, -92.791
 989.2100, -82.530
 989.2200, -78.829
 989.2300, -85.771
 989.2400, -84.478
 989.2500,-210.000
 989.2600, -79.446
 989.2700, -76.193
 989.2800, -81.615
 989.2900, -79.955
 989.3000,-210.000
 989.3100,-210.000
 989.3200, -80.568
 989.3300, -81.564
 989.3400, -95.649
 989.3500, -83.575
 989.3600,-210.000
 989.3700, -80.674
 989.3800, -80.320
 989.3900, -81.011
 989.4000,-210.000
 989.4100, -80.152
 989.4200, -78.659
 989.4300,-210.000
 989.4400,-210.000
 989.4500, -78.161
 989.4600, -78.274
 989.4700,-210.000
 989.4800, -78.944
 989.4900, -85.451
 989.5000, -80.539
 989.5100, -77.424
 989.5200, -82.640
 989.5300, -84.776
 989.5400, -84.112
 989.5500, -78.874
 989.5600, -79.266
 989.5700, -80.972
 989.5800, -79.880
 989.5900, -85.220
 989.6000, -83.178
 989.6100,-210.000
 989.6200, -79.962
 989.6300, -81.558
 989.6400, -82.504
 989.6500, -80.189
 989.6600, -84.581
 989.6700, -84.557
 989.6800, -88.701
 989.6900, -77.412
 989.7000, -83.191
 989.7100, -89.862
 989.7200, -81.633
 989.7300, -78.507
 989.7400, -78.931
 989.7500, -84.618
 989.7600, -81.538
 989.7700, -80.277
 989.7800, -84.476
 989.7900,-210.000
 989.8000, -79.441
 989.8100,-210.000
 989.8200, -90.030
 989.8300, -79.948
 989.8400,-210.000
 989.8500,-210.000
 989.8600, -81.950
 989.8700, -83.001
 989.8800, -77.977
 989.8900,-210.000
 989.9000,-210.000
 989.9100, -86.783
 989.9200, -84.304
 989.9300, -78.245
 989.9400, -81.988
 989.9500, -80.106
 989.9600,-210.000
 989.9700,-210.000
 989.9800, -79.419
 989.9900, -86.921
 990.0000, -80.633
 990.0100,-210.000
 990.0200, -77.900
 990.0300,-210.000
 990.0400, -88.125
 990.0500,-210.000
 990.0600, -78.221
 990.0700, -83.689
 990.0800, -79.886
 990.0900,-210.000
 990.1000, -79.063
 990.1100, -82.274
 990.1200, -92.060
 990.1300, -81.154
 990.1400, -78.016
 990.1500, -76.492
 990.1600, -80.927
 990.1700, -83.840
 990.1800, -78.761
 990.1900,-210.000
 990.2000, -79.293
 990.2100, -90.906
 990.2200, -89.024
 990.2300, -81.720
 990.2400, -85.468
 990.2500,-210.000
 990.2600, -80.669
 990.2700, -78.020
 990.2800,-210.000
 990.2900,-210.000
 990.3000, -78.383
 990.3100, -78.660
 990.3200,-210.000
 990.3300, -81.876
 990.3400, -83.450
 990.3500, -81.338
 990.3600, -79.965
 990.3700, -84.667
 990.3800, -83.190
 990.3900,-210.000
 990.4000,-210.000
 990.4100, -78.656
 990.4200, -83.814
 990.4300, -85.270
 990.4400, -82.467
 990.4500, -81.492
 990.4600, -78.899
 990.4700,-210.000
 990.4800, -83.562
 990.4900, -90.658
 990.5000, -82.174
 990.5100, -80.490
 990.5200, -81.777
 990.5300, -78.653
 990.5400,-210.000
 990.5500, -89.084
 990.5600,-210.000
 990.5700, -82.666
 990.5800, -84.879
 990.5900, -79.887
 990.6000,-210.000
 990.6100, -80.109
 990.6200, -82.443
 990.6300, -84.564
 990.6400, -79.425
 990.6500, -79.002
 990.6600,-210.000
 990.6700, -92.982
 990.6800, -96.579
 990.6900, -82.918
 990.7000, -79.791
 990.7100, -80.285
 990.7200, -80.567
 990.7300, -78.357
 990.7400, -77.847
 990.7500, -78.781
 990.7600, -87.411
 990.7700, -77.224
 990.7800, -76.539
 990.7900, -78.894
 990.8000,-210.000
 990.8100, -87.799
 990.8200,-210.000
 990.8300,-210.000
 990.8400, -77.128
 990.8500,-210.000
 990.8600, -81.723
 990.8700, -83.534
 990.8800, -83.844
 990.8900,-210.000
 990.9000, -82.706
 990.9100, -92.138
 990.9200, -82.146
 990.9300, -87.403
 990.9400, -85.290
 990.9500,-210.000
 990.9600,-210.000
 990.9700, -79.144
 990.9800, -78.516
 990.9900, -81.340
 991.0000,-210.000
 991.0100, -84.115
 991.0200, -83.641
 991.0300, -81.330
 991.0400, -81.791
 991.0500, -81.140
 991.0600, -79.847
 991.0700, -77.505
 991.0800, -80.747
 991.0900, -79.313
 991.1000,-210.000
 991.1100, -78.145
 991.1200,-210.000
 991.1300, -87.018
 991.1400, -77.113
 991.1500, -79.020
 991.1600, -79.806
 991.1700, -84.582
 991.1800, -80.870
 991.1900, -79.182
 991.2000, -78.170
 991.2100, -80.196
 991.2200, -79.829
 991.2300, -79.006
 991.2400, -84.757
 991.2500, -83.781
 991.2600,-210.000
 991.2700, -78.727
 991.2800, -78.127
 991.2900, -90.389
 991.3000,-210.000
 991.3100, -78.463
 991.3200, -86.212
 991.3300, -79.326
 991.3400, -85.480
 991.3500,-210.000
 991.3600, -78.155
 991.3700, -78.843
 991.3800, -84.312
 991.3900, -81.286
 991.4000, -78.201
 991.4100, -85.040
 991.4200, -78.682
 991.4300, -79.542
 991.4400, -82.059
 991.4500,-210.000
 991.4600, -78.969
 991.4700,-210.000
 991.4800, -81.461
 991.4900, -79.644
 991.5000, -82.922
 991.5100, -83.286
 991.5200, -81.981
 991.5300, -83.369
 991.5400, -79.545
 991.5500, -76.538
 991.5600, -81.653
 991.5700, -80.488
 991.5800,-210.000
 991.5900,-210.000
 991.6000, -87.848
 991.6100, -77.739
 991.6200,-210.000
 991.6300, -84.751
 991.6400, -85.257
 991.6500, -79.739
 991.6600, -79.905
 991.6700, -79.787
 991.6800, -80.782
 991.6900, -82.334
 991.7000, -82.641
 991.7100, -81.452
 991.7200,-210.000
 991.7300, -77.197
 991.7400, -76.738
 991.7500, -82.505
 991.7600, -78.515
 991.7700, -77.568
 991.7800, -80.731
 991.7900, -76.637
 991.8000, -85.088
 991.8100, -79.391
 991.8200, -80.467
 991.8300, -78.100
 991.8400, -78.759
 991.8500, -77.485
 991.8600, -86.257
 991.8700, -80.477
 991.8800,-210.000
 991.8900, -86.038
 991.9000, -81.610
 991.9100, -84.121
 991.9200,-210.000
 991.9300, -81.536
 991.9400, -77.105
 991.9500, -80.915
 991.9600, -79.934
 991.9700, -83.861
 991.9800,-210.000
 991.9900, -80.830
 992.0000, -85.513
 992.0100, -82.287
 992.0200, -79.657
 992.0300, -80.943
 992.0400, -80.977
 992.0500,-210.000
 992.0600, -80.834
 992.0700, -77.990
 992.0800, -78.888
 992.0900,-210.000
 992.1000, -80.043
 992.1100,-210.000
 992.1200, -80.841
 992.1300, -89.716
 992.1400, -77.822
 992.1500, -81.921
 992.1600, -78.308
 992.1700, -77.713
 992.1800, -79.740
 992.1900, -97.902
 992.2000, -82.746
 992.2100,-210.000
 992.2200, -88.071
 992.2300, -80.615
 992.2400,-210.000
 992.2500, -79.774
 992.2600,-210.000
 992.2700, -85.254
 992.2800, -85.454
 992.2900, -88.487
 992.3000,-210.000
 992.3100, -79.698
 992.3200, -88.418
 992.3300, -78.469
 992.3400, -82.711
 992.3500, -82.517
 992.3600, -77.468
 992.3700, -85.561
 992.3800, -88.362
 992.3900, -83.648
 992.4000, -79.997
 992.4100, -78.908
 992.4200,-210.000
 992.4300,-210.000
 992.4400, -83.830
 992.4500,-210.000
 992.4600, -81.612
 992.4700, -85.949
 992.4800, -86.260
 992.4900,-210.000
 992.5000, -82.887
 992.5100, -86.303
 992.5200, -80.059
 992.5300, -84.025
 992.5400, -84.357
 992.5500, -78.567
 992.5600,-210.000
 992.5700, -87.895
 992.5800, -82.098
 992.5900, -84.395
 992.6000,-210.000
 992.6100, -79.076
 992.6200, -82.723
 992.6300, -78.317
 992.6400, -77.810
 992.6500, -80.256
 992.6600, -84.448
 992.6700, -82.112
 992.6800, -81.149
 992.6900, -79.976
 992.7000, -87.480
 992.7100, -77.881
 992.7200, -84.571
 992.7300,-210.000
 992.7400,-210.000
 992.7500, -83.516
 992.7600, -80.658
 992.7700,-210.000
 992.7800,-210.000
 992.7900, -80.790
 992.8000, -78.732
 992.8100,-210.000
 992.8200, -77.930
 992.8300, -82.141
 992.8400, -85.337
 992.8500, -83.151
 992.8600,-210.000
 992.8700, -80.274
 992.8800, -78.549
 992.8900, -82.187
 992.9000, -87.474
 992.9100,-210.000
 992.9200, -77.593
 992.9300,-210.000
 992.9400, -91.585
 992.9500, -83.860
 992.9600, -83.491
 992.9700, -80.521
 992.9800, -79.726
 992.9900, -84.694
 993.0000, -79.303
 993.0100, -80.155
 993.0200, -86.786
 993.0300,-210.000
 993.0400, -78.936
 993.0500, -89.679
 993.0600,-210.000
 993.0700, -78.942
 993.0800,-210.000
 993.0900, -77.447
 993.1000, -88.153
 993.1100,-210.000
 993.1200, -77.594
 993.1300, -79.837
 993.1400, -79.872
 993.1500, -87.901
 993.1600, -82.861
 993.1700, -79.665
 993.1800, -82.521
 993.1900, -82.321
 993.2000, -84.778
 993.2100,-100.374
 993.2200,-210.000
 993.2300, -88.802
 993.2400, -80.354
 993.2500, -89.288
 993.2600, -79.046
 993.2700, -82.573
 993.2800,-210.000
 993.2900, -83.355
 993.3000, -78.742
 993.3100, -79.175
 993.3200, -79.878
 993.3300, -79.366
 993.3400,-210.000
 993.3500, -80.090
 993.3600, -82.065
 993.3700,-210.000
 993.3800, -84.231
 993.3900, -80.920
 993.4000, -78.827
 993.4100,-210.000
 993.4200, -80.274
 993.4300, -77.960
 993.4400,-210.000
 993.4500,-210.000
 993.4600, -80.117
 993.4700, -81.293
 993.4800, -82.762
 993.4900, -80.008
 993.5000, -80.019
 993.5100, -82.696
 993.5200, -77.821
 993.5300, -80.335
 993.5400, -91.003
 993.5500,-210.000
 993.5600, -75.502
 993.5700, -79.152
 993.5800,-210.000
 993.5900,-210.000
 993.6000, -89.001
 993.6100, -78.529
 993.6200, -80.541
 993.6300, -84.538
 993.6400, -79.139
 993.6500, -81.483
 993.6600, -82.063
 993.6700, -82.834
 993.6800, -82.509
 993.6900, -85.275
 993.7000, -81.600
 993.7100, -79.202
 993.7200, -78.360
 993.7300, -88.785
 993.7400, -93.981
 993.7500, -77.220
 993.7600, -80.841
 993.7700, -85.308
 993.7800, -81.755
 993.7900, -78.018
 993.8000, -78.597
 993.8100,-210.000
 993.8200, -78.165
 993.8300, -77.131
 993.8400, -79.433
 993.8500, -89.925
 993.8600, -82.653
 993.8700, -83.113
 993.8800, -79.799
 993.8900, -83.327
 993.9000, -86.655
 993.9100, -84.841
 993.9200, -78.275
 993.9300, -88.885
 993.9400,-210.000
 993.9500, -78.639
 993.9600,-210.000
 993.9700, -79.658
 993.9800, -79.306
 993.9900, -78.914
 994.0000, -89.344
 994.0100, -80.201
 994.0200, -80.222
 994.0300, -78.040
 994.0400, -79.715
 994.0500, -83.794
 994.0600, -77.484
 994.0700, -81.302
 994.0800,-210.000
 994.0900, -80.803
 994.1000, -85.821
 994.1100, -83.508
 994.1200, -79.866
 994.1300, -81.260
 994.1400, -78.782
 994.1500, -81.652
 994.1600, -80.840
 994.1700, -80.959
 994.1800, -80.777
 994.1900, -80.556
 994.2000, -82.478
 994.2100,-210.000
 994.2200, -84.312
 994.2300,-210.000
 994.2400,-210.000
 994.2500, -85.228
 994.2600, -76.329
 994.2700, -78.276
 994.2800, -85.054
 994.2900, -87.740
 994.3000,-210.000
 994.3100, -82.259
 994.3200,-210.000
 994.3300, -80.502
 994.3400, -78.392
 994.3500, -81.402
 994.3600,-210.000
 994.3700, -81.026
 994.3800, -82.738
 994.3900, -78.952
 994.4000, -80.581
 994.4100, -79.336
 994.4200, -85.625
 994.4300,-210.000
 994.4400, -76.467
 994.4500,-210.000
 994.4600, -87.992
 994.4700, -91.031
 994.4800, -79.727
 994.4900, -77.481
 994.5000, -77.702
 994.5100,-210.000
 994.5200,-107.030
 994.5300, -79.370
 994.5400, -77.539
 994.5500, -80.587
 994.5600, -83.524
 994.5700, -82.983
 994.5800, -79.162
 994.5900, -94.642
 994.6000,-210.000
 994.6100, -83.219
 994.6200, -81.244
 994.6300, -78.587
 994.6400,-210.000
 994.6500, -85.885
 994.6600, -78.765
 994.6700,-210.000
 994.6800, -80.687
 994.6900,-210.000
 994.7000, -77.538
 994.7100, -85.675
 994.7200, -81.905
 994.7300, -77.843
 994.7400,-210.000
 994.7500, -82.885
 994.7600,-210.000
 994.7700,-210.000
 994.7800, -78.237
 994.7900, -81.844
 994.8000, -78.848
 994.8100, -77.271
 994.8200, -79.706
 994.8300, -79.590
 994.8400, -86.612
 994.8500, -79.032
 994.8600, -84.650
 994.8700,-210.000
 994.8800, -81.206
 994.8900, -86.192
 994.9000, -82.743
 994.9100, -77.622
 994.9200, -80.464
 994.9300, -80.020
 994.9400, -77.009
 994.9500,-210.000
 994.9600, -83.782
 994.9700, -80.362
 994.9800,-210.000
 994.9900, -84.591
 995.0000, -78.181
 995.0100, -78.741
 995.0200, -78.633
 995.0300, -78.810
 995.0400,-210.000
 995.0500, -80.220
 995.0600,-210.000
 995.0700, -77.351
 995.0800, -77.328
 995.0900, -77.077
 995.1000,-210.000
 995.1100, -90.853
 995.1200, -81.160
 995.1300, -85.498
 995.1400, -83.911
 995.1500, -80.949
 995.1600, -84.006
 995.1700, -78.975
 995.1800,-210.000
 995.1900, -80.875
 995.2000, -80.557
 995.2100,-210.000
 995.2200,-210.000
 995.2300, -82.556
 995.2400, -78.243
 995.2500, -76.723
 995.2600, -79.819
 995.2700,-210.000
 995.2800, -84.318
 995.2900, -79.755
 995.3000, -83.507
 995.3100, -79.055
 995.3200,-210.000
 995.3300, -85.158
 995.3400, -81.973
 995.3500, -79.790
 995.3600, -78.954
 995.3700, -78.899
 995.3800, -79.046
 995.3900, -80.339
 995.4000, -93.296
 995.4100,-210.000
 995.4200, -83.756
 995.4300,-210.000
 995.4400, -83.268
 995.4500, -81.318
 995.4600, -80.148
 995.4700, -79.722
 995.4800,-100.306
 995.4900,-210.000
 995.5000, -79.463
 995.5100, -83.399
 995.5200, -82.490
 995.5300, -81.368
 995.5400, -78.914
 995.5500, -85.351
 995.5600, -83.104
 995.5700,-210.000
 995.5800, -78.985
 995.5900, -89.775
 995.6000, -82.413
 995.6100, -82.962
 995.6200,-210.000
 995.6300, -82.094
 995.6400, -86.198
 995.6500,-210.000
 995.6600, -85.773
 995.6700, -98.228
 995.6800, -77.380
 995.6900,-210.000
 995.7000, -83.851
 995.7100, -86.329
 995.7200,-210.000
 995.7300, -82.328
 995.7400,-210.000
 995.7500, -83.985
 995.7600,-210.000
 995.7700,-210.000
 995.7800, -79.029
 995.7900, -78.123
 995.8000,-210.000
 995.8100, -83.521
 995.8200, -82.100
 995.8300, -87.535
 995.8400, -79.581
 995.8500, -79.746
 995.8600, -79.255
 995.8700, -80.269
 995.8800, -79.009
 995.8900, -80.894
 995.9000, -85.341
 995.9100,-210.000
 995.9200,-210.000
 995.9300, -82.031
 995.9400, -78.102
 995.9500,-210.000
 995.9600, -83.111
 995.9700,-210.000
 995.9800, -87.991
 995.9900,-210.000
 996.0000, -83.703
 996.0100,-210.000
 996.0200, -83.894
 996.0300, -78.771
 996.0400, -89.370
 996.0500, -81.861
 996.0600, -78.932
 996.0700, -85.247
 996.0800, -79.804
 996.0900,-210.000
 996.1000, -78.051
 996.1100, -88.275
 996.1200, -82.696
 996.1300, -87.838
 996.1400, -83.167
 996.1500, -81.644
 996.1600, -82.970
 996.1700, -80.010
 996.1800, -81.067
 996.1900, -83.591
 996.2000, -80.038
 996.2100, -81.963
 996.2200, -86.052
 996.2300,-210.000
 996.2400,-210.000
 996.2500, -89.686
 996.2600, -80.359
 996.2700, -83.591
 996.2800, -83.046
 996.2900, -80.178
 996.3000, -82.058
 996.3100,-210.000
 996.3200, -81.091
 996.3300, -96.400
 996.3400, -81.764
 996.3500,-210.000
 996.3600, -81.585
 996.3700,-210.000
 996.3800,-210.000
 996.3900, -80.543
 996.4000, -80.811
 996.4100, -80.099
 996.4200,-210.000
 996.4300, -78.041
 996.4400, -82.265
 996.4500,-210.000
 996.4600, -83.935
 996.4700,-210.000
 996.4800, -83.368
 996.4900,-210.000
 996.5000,-210.000
 996.5100, -82.444
 996.5200,-210.000
 996.5300, -88.287
 996.5400,-210.000
 996.5500, -80.839
 996.5600, -79.758
 996.5700, -86.484
 996.5800, -83.100
 996.5900, -78.963
 996.6000, -90.775
 996.6100, -93.359
 996.6200, -78.022
 996.6300, -81.001
 996.6400, -80.659
 996.6500, -77.758
 996.6600,-210.000
 996.6700,-210.000
 996.6800, -80.961
 996.6900, -82.035
 996.7000,-210.000
 996.7100, -83.471
 996.7200, -88.166
 996.7300, -77.984
 996.7400, -80.038
 996.7500, -86.789
 996.7600, -83.069
 996.7700, -78.333
 996.7800, -78.901
 996.7900,-210.000
 996.8000, -79.820
 996.8100, -82.991
 996.8200, -80.712
 996.8300, -80.101
 996.8400,-210.000
 996.8500,-210.000
 996.8600, -88.227
 996.8700,-210.000
 996.8800,-210.000
 996.8900, -85.909
 996.9000, -76.463
 996.9100, -86.441
 996.9200, -79.440
 996.9300, -81.859
 996.9400, -83.201
 996.9500,-210.000
 996.9600,-210.000
 996.9700, -81.018
 996.9800, -85.845
 996.9900,-210.000
 997.0000,-210.000
 997.0100, -81.208
 997.0200, -76.433
 997.0300,-210.000
 997.0400, -81.718
 997.0500, -80.863
 997.0600, -77.079
 997.0700, -78.688
 997.0800, -80.555
 997.0900, -82.294
 997.1000, -80.476
 997.1100, -80.889
 997.1200, -79.140
 997.1300, -83.715
 997.1400,-210.000
 997.1500, -83.432
 997.1600, -78.973
 997.1700, -82.604
 997.1800, -81.216
 997.1900,-210.000
 997.2000, -81.970
 997.2100,-210.000
 997.2200, -79.169
 997.2300, -76.686
 997.2400, -79.508
 997.2500,-210.000
 997.2600,-210.000
 997.2700, -79.381
 997.2800, -77.364
 997.2900, -79.680
 997.3000, -85.583
 997.3100, -88.508
 997.3200,-210.000
 997.3300, -83.751
 997.3400, -78.510
 997.3500,-210.000
 997.3600,-210.000
 997.3700, -85.323
 997.3800, -80.475
 997.3900,-210.000
 997.4000, -80.364
 997.4100, -81.149
 997.4200, -78.574
 997.4300,-210.000
 997.4400, -77.503
 997.4500, -80.652
 997.4600, -83.929
 997.4700,-102.202
 997.4800, -82.987
 997.4900, -83.732
 997.5000,-210.000
 997.5100, -82.969
 997.5200, -80.627
 997.5300, -77.481
 997.5400, -80.867
 997.5500, -79.732
 997.5600, -85.395
 997.5700, -78.980
 997.5800,-210.000
 997.5900, -85.198
 997.6000, -84.364
 997.6100, -87.177
 997.6200, -80.824
 997.6300, -82.579
 997.6400,-210.000
 997.6500,-210.000
 997.6600, -78.275
 997.6700,-210.000
 997.6800, -82.745
 997.6900, -77.680
 997.7000, -77.019
 997.7100, -81.396
 997.7200, -82.235
 997.7300, -81.282
 997.7400, -80.879
 997.7500, -85.408
 997.7600, -79.157
 997.7700, -84.495
 997.7800, -95.162
 997.7900, -86.145
 997.8000,-210.000
 997.8100, -84.214
 997.8200, -88.913
 997.8300, -82.405
 997.8400, -76.010
 997.8500, -79.991
 997.8600, -80.377
 997.8700, -77.847
 997.8800, -77.426
 997.8900, -80.507
 997.9000, -83.772
 997.9100, -86.645
 997.9200, -82.034
 997.9300,-210.000
 997.9400, -82.094
 997.9500, -86.190
 997.9600, -83.696
 997.9700, -79.136
 997.9800,-210.000
 997.9900, -82.645
 998.0000, -84.596
 998.0100, -85.156
 998.0200, -78.603
 998.0300,-210.000
 998.0400, -84.836
 998.0500,-210.000
 998.0600, -81.044
 998.0700, -82.831
 998.0800, -81.316
 998.0900, -78.190
 998.1000,-210.000
 998.1100, -81.774
 998.1200, -79.331
 998.1300, -80.623
 998.1400,-210.000
 998.1500, -82.765
 998.1600, -84.431
 998.1700, -93.339
 998.1800,-210.000
 998.1900, -82.195
 998.2000,-103.541
 998.2100, -85.873
 998.2200,-210.000
 998.2300,-110.132
 998.2400, -78.593
 998.2500,-210.000
 998.2600, -79.347
 998.2700, -77.644
 998.2800,-210.000
 998.2900,-210.000
 998.3000, -86.763
 998.3100, -82.515
 998.3200, -76.516
 998.3300, -80.464
 998.3400, -77.971
 998.3500, -88.253
 998.3600, -91.786
 998.3700, -77.293
 998.3800, -78.518
 998.3900,-210.000
 998.4000, -78.753
 998.4100,-210.000
 998.4200, -79.847
 998.4300, -85.896
 998.4400, -79.901
 998.4500, -84.268
 998.4600, -79.420
 998.4700,-210.000
 998.4800, -79.630
 998.4900, -80.018
 998.5000, -80.373
 998.5100,-210.000
 998.5200, -81.716
 998.5300,-210.000
 998.5400, -85.345
 998.5500, -88.111
 998.5600, -81.355
 998.5700,-210.000
 998.5800,-210.000
 998.5900, -78.122
 998.6000, -84.043
 998.6100, -78.118
 998.6200, -85.452
 998.6300, -77.912
 998.6400, -81.328
 998.6500,-210.000
 998.6600,-210.000
 998.6700, -78.467
 998.6800, -83.235
 998.6900, -93.756
 998.7000, -82.748
 998.7100, -84.039
 998.7200, -78.296
 998.7300, -79.667
 998.7400, -85.570
 998.7500,-210.000
 998.7600, -77.165
 998.7700, -89.839
 998.7800, -84.376
 998.7900, -90.587
 998.8000, -91.599
 998.8100, -82.052
 998.8200, -86.872
 998.8300,-210.000
 998.8400, -79.247
 998.8500, -80.751
 998.8600,-210.000
 998.8700,-210.000
 998.8800, -85.015
 998.8900, -79.239
 998.9000,-210.000
 998.9100, -82.672
 998.9200, -87.319
 998.9300, -80.440
 998.9400, -89.743
 998.9500, -81.464
 998.9600, -76.912
 998.9700, -78.947
 998.9800, -77.583
 998.9900, -80.480
 999.0000, -85.923
 999.0100, -77.457
 999.0200, -83.332
 999.0300, -87.742
 999.0400, -86.233
 999.0500,-210.000
 999.0600, -91.359
 999.0700, -78.145
 999.0800, -91.301
 999.0900,-210.000
 999.1000, -78.225
 999.1100,-210.000
 999.1200,-210.000
 999.1300, -80.144
 999.1400, -76.983
 999.1500, -81.341
 999.1600,-210.000
 999.1700, -77.283
 999.1800, -88.092
 999.1900, -78.438
 999.2000,-210.000
 999.2100, -84.456
 999.2200,-210.000
 999.2300, -77.539
 999.2400, -83.546
 999.2500, -81.021
 999.2600, -82.036
 999.2700, -77.073
 999.2800, -97.635
 999.2900, -90.202
 999.3000, -79.041
 999.3100, -80.114
 999.3200, -83.852
 999.3300, -78.889
 999.3400, -85.927
 999.3500, -79.620
 999.3600, -86.248
 999.3700, -80.675
 999.3800, -80.655
 999.3900, -80.054
 999.4000, -82.457
 999.4100, -86.115
 999.4200,-210.000
 999.4300, -85.196
 999.4400, -78.902
 999.4500, -81.177
 999.4600, -88.405
 999.4700,-210.000
 999.4800, -78.831
 999.4900, -88.863
 999.5000, -80.247
 999.5100, -79.652
 999.5200, -90.942
 999.5300, -78.547
 999.5400, -81.102
 999.5500, -82.936
 999.5600, -81.205
 999.5700,-210.000
 999.5800, -80.990
 999.5900,-210.000
 999.6000, -86.674
 999.6100, -86.773
 999.6200, -81.309
 999.6300, -78.629
 999.6400,-210.000
 999.6500,-210.000
 999.6600, -84.676
 999.6700, -77.694
 999.6800, -83.604
 999.6900, -91.712
 999.7000, -77.916
 999.7100, -80.713
 999.7200, -83.614
 999.7300, -76.438
 999.7400, -81.063
 999.7500,-210.000
 999.7600,-210.000
 999.7700,-210.000
 999.7800, -84.025
 999.7900, -77.372
 999.8000, -83.378
 999.8100, -80.369
 999.8200, -81.810
 999.8300,-210.000
 999.8400, -80.702
 999.8500,-210.000
 999.8600,-210.000
 999.8700, -85.617
 999.8800, -76.943
 999.8900, -79.996
 999.9000, -79.053
 999.9100, -92.599
 999.9200,-210.000
 999.9300, -78.605
 999.9400,-210.000
 999.9500, -80.998
 999.9600, -95.762
 999.9700, -75.814
 999.9800, -80.735
 999.9900, -81.125
1000.0000, -80.210
1000.0100, -80.643
1000.0200, -82.902
1000.0300, -83.393
1000.0400, -79.107
1000.0500, -82.191
1000.0600,-210.000
1000.0700, -79.563
1000.0800, -77.091
1000.0900, -90.888
1000.1000, -79.082
1000.1100,-210.000
1000.1200, -87.325
1000.1300, -79.679
1000.1400, -78.792
1000.1500, -82.197
1000.1600, -79.437
1000.1700,-210.000
1000.1800, -81.061
1000.1900, -82.544
1000.2000, -81.256
1000.2100, -82.049
1000.2200, -85.447
1000.2300, -79.065
1000.2400, -86.689
1000.2500, -78.773
1000.2600, -84.221
1000.2700, -81.734
1000.2800,-210.000
1000.2900, -82.495
1000.3000, -81.117
1000.3100, -83.275
1000.3200, -76.902
1000.3300, -84.970
1000.3400, -87.417
1000.3500, -81.376
1000.3600, -77.007
1000.3700,-210.000
1000.3800, -79.944
1000.3900,-210.000
1000.4000,-210.000
1000.4100, -82.384
1000.4200, -85.685
1000.4300, -92.240
1000.4400, -80.816
1000.4500,-210.000
1000.4600, -83.687
1000.4700, -80.614
1000.4800,-210.000
1000.4900,-210.000
1000.5000, -83.721
1000.5100, -78.717
1000.5200, -80.556
1000.5300, -85.022
1000.5400, -85.729
1000.5500, -83.832
1000.5600, -82.775
1000.5700,-210.000
1000.5800, -79.816
1000.5900,-210.000
1000.6000, -83.568
1000.6100,-210.000
1000.6200, -90.230
1000.6300,-210.000
1000.6400, -79.547
1000.6500,-210.000
1000.6600, -79.406
1000.6700,-210.000
1000.6800, -80.620
1000.6900, -80.873
1000.7000,-210.000
1000.7100, -82.006
1000.7200, -83.626
1000.7300,-210.000
1000.7400, -82.988
1000.7500,-210.000
1000.7600, -77.883
1000.7700, -88.335
1000.7800, -80.115
1000.7900, -79.607
1000.8000, -84.587
1000.8100,-210.000
1000.8200, -79.170
1000.8300, -82.266
1000.8400, -98.287
1000.8500,-210.000
1000.8600,-210.000
1000.8700,-210.000
1000.8800, -78.252
1000.8900,-210.000
1000.9000, -85.669
1000.9100, -83.408
1000.9200, -79.299
1000.9300,-210.000
1000.9400, -81.881
1000.9500, -84.338
1000.9600, -88.103
1000.9700, -81.637
1000.9800, -85.240
1000.9900, -90.384
1001.0000, -89.380
