73CSV  	
// AQ6373B OPTICAL SPECTRUM ANALYZER //                 
35
"CTRWL", 976.000000
"SPAN",  50.000000
"START WL", 951.000000
"STOP WL",1001.000000
"WLFREQ", 0
"REFL",-33.4
"LSCL",10.0
"RESLN",0.050
"AVG",   1
"SMPLAUTO",      1
"SMPL",       5001
"SMPLINTVL",0.0100
"HIGH1"
"MEAS"
"LSUNT",0
"NMSKH","OFF"
"RESCOR",0
"SMOOTH",0
"MEASWL",0
"SWPSPD",0
"CHGPT",          0
"RESCAL0_0",       9389
"RESCAL0_1",        538
"RESCAL0_2",    -340913
"RESCAL1_0",       9652
"RESCAL1_1",         64
"RESCAL1_2",     -41039
"CORESIZE", 0







"[TRACE DATA]"
 951.0000, -77.341
 951.0100, -77.543
 951.0200, -82.838
 951.0300, -85.650
 951.0400, -81.020
 951.0500, -78.677
 951.0600, -80.090
 951.0700, -75.474
 951.0800, -76.301
 951.0900, -82.048
 951.1000, -81.247
 951.1100, -80.368
 951.1200, -78.887
 951.1300, -90.698
 951.1400, -93.660
 951.1500, -85.796
 951.1600,-210.000
 951.1700, -79.511
 951.1800, -78.196
 951.1900, -78.525
 951.2000, -78.905
 951.2100, -81.100
 951.2200, -82.218
 951.2300, -78.670
 951.2400,-210.000
 951.2500, -81.533
 951.2600, -79.417
 951.2700, -80.963
 951.2800, -81.576
 951.2900, -83.286
 951.3000, -84.953
 951.3100, -78.682
 951.3200,-210.000
 951.3300, -80.289
 951.3400, -80.429
 951.3500, -75.820
 951.3600, -80.105
 951.3700, -81.124
 951.3800, -79.657
 951.3900, -80.556
 951.4000, -76.383
 951.4100, -76.793
 951.4200, -79.056
 951.4300, -77.896
 951.4400, -77.603
 951.4500, -77.238
 951.4600,-210.000
 951.4700, -81.532
 951.4800, -82.081
 951.4900, -77.197
 951.5000, -75.927
 951.5100, -81.646
 951.5200, -77.257
 951.5300, -79.747
 951.5400, -90.059
 951.5500, -80.186
 951.5600, -77.863
 951.5700, -77.130
 951.5800, -77.646
 951.5900, -83.802
 951.6000, -82.319
 951.6100, -82.541
 951.6200, -80.714
 951.6300, -80.234
 951.6400, -79.645
 951.6500, -84.069
 951.6600, -78.249
 951.6700, -76.685
 951.6800, -78.135
 951.6900, -79.472
 951.7000, -95.561
 951.7100, -82.894
 951.7200, -76.916
 951.7300, -81.067
 951.7400, -78.127
 951.7500, -76.967
 951.7600, -78.282
 951.7700, -77.169
 951.7800, -76.923
 951.7900, -83.789
 951.8000,-210.000
 951.8100, -80.004
 951.8200, -80.549
 951.8300, -78.636
 951.8400, -80.404
 951.8500, -78.076
 951.8600, -79.202
 951.8700, -76.984
 951.8800, -81.098
 951.8900, -79.815
 951.9000, -77.326
 951.9100, -82.525
 951.9200, -77.375
 951.9300, -78.473
 951.9400, -76.722
 951.9500, -77.085
 951.9600, -78.762
 951.9700, -81.296
 951.9800, -77.861
 951.9900, -82.682
 952.0000, -79.872
 952.0100, -89.644
 952.0200, -83.703
 952.0300,-210.000
 952.0400, -80.281
 952.0500, -82.164
 952.0600, -80.013
 952.0700, -78.103
 952.0800, -80.371
 952.0900, -86.045
 952.1000,-210.000
 952.1100, -82.237
 952.1200, -78.555
 952.1300, -77.526
 952.1400, -85.827
 952.1500, -78.787
 952.1600, -82.897
 952.1700, -83.645
 952.1800, -88.743
 952.1900, -83.806
 952.2000, -85.239
 952.2100,-210.000
 952.2200, -78.031
 952.2300,-210.000
 952.2400, -76.974
 952.2500, -78.470
 952.2600, -80.085
 952.2700, -84.849
 952.2800, -77.051
 952.2900, -81.809
 952.3000,-210.000
 952.3100, -81.412
 952.3200, -88.829
 952.3300, -82.392
 952.3400, -79.416
 952.3500, -78.900
 952.3600, -79.805
 952.3700, -80.972
 952.3800, -77.070
 952.3900, -77.786
 952.4000, -81.813
 952.4100, -77.197
 952.4200, -78.617
 952.4300, -90.151
 952.4400, -79.777
 952.4500, -91.402
 952.4600, -76.204
 952.4700, -80.582
 952.4800, -77.759
 952.4900, -77.789
 952.5000, -88.085
 952.5100, -80.747
 952.5200, -79.574
 952.5300, -80.879
 952.5400, -77.519
 952.5500,-210.000
 952.5600, -80.255
 952.5700, -80.878
 952.5800, -79.940
 952.5900, -81.080
 952.6000, -90.174
 952.6100, -77.373
 952.6200, -80.968
 952.6300, -85.422
 952.6400, -81.858
 952.6500, -81.456
 952.6600, -77.900
 952.6700, -82.449
 952.6800, -89.365
 952.6900, -78.486
 952.7000, -82.201
 952.7100, -78.105
 952.7200, -76.676
 952.7300, -78.592
 952.7400, -81.900
 952.7500, -77.027
 952.7600, -78.110
 952.7700, -77.344
 952.7800, -77.831
 952.7900, -84.746
 952.8000, -77.546
 952.8100, -79.766
 952.8200, -81.771
 952.8300, -86.578
 952.8400, -84.601
 952.8500, -76.234
 952.8600, -79.891
 952.8700,-210.000
 952.8800, -81.463
 952.8900, -80.887
 952.9000, -78.355
 952.9100, -80.273
 952.9200, -78.650
 952.9300, -93.112
 952.9400, -83.005
 952.9500, -80.919
 952.9600, -79.969
 952.9700, -86.330
 952.9800,-210.000
 952.9900, -84.315
 953.0000, -79.350
 953.0100, -81.563
 953.0200, -80.866
 953.0300, -79.774
 953.0400, -78.269
 953.0500, -78.984
 953.0600, -78.343
 953.0700,-210.000
 953.0800, -83.706
 953.0900,-210.000
 953.1000, -81.880
 953.1100, -78.384
 953.1200, -79.879
 953.1300, -77.186
 953.1400, -77.561
 953.1500, -76.520
 953.1600, -77.453
 953.1700, -84.685
 953.1800, -89.582
 953.1900, -82.353
 953.2000, -76.001
 953.2100, -83.873
 953.2200, -77.563
 953.2300, -78.630
 953.2400, -81.406
 953.2500, -79.982
 953.2600, -80.936
 953.2700, -76.152
 953.2800, -77.655
 953.2900, -81.156
 953.3000, -79.831
 953.3100, -76.401
 953.3200, -83.013
 953.3300, -81.007
 953.3400, -77.395
 953.3500, -76.775
 953.3600, -76.894
 953.3700,-210.000
 953.3800, -84.258
 953.3900, -86.517
 953.4000, -80.350
 953.4100, -80.607
 953.4200, -77.938
 953.4300, -75.652
 953.4400, -78.776
 953.4500, -79.513
 953.4600, -78.395
 953.4700, -77.642
 953.4800, -79.383
 953.4900, -77.863
 953.5000, -79.633
 953.5100, -88.766
 953.5200,-210.000
 953.5300, -78.892
 953.5400, -77.385
 953.5500, -77.791
 953.5600, -77.290
 953.5700, -77.536
 953.5800, -77.056
 953.5900, -80.848
 953.6000, -79.483
 953.6100, -77.008
 953.6200, -76.696
 953.6300, -76.749
 953.6400, -77.524
 953.6500, -77.607
 953.6600,-210.000
 953.6700, -77.754
 953.6800, -76.497
 953.6900,-210.000
 953.7000,-210.000
 953.7100, -77.378
 953.7200, -80.512
 953.7300, -82.805
 953.7400, -79.387
 953.7500, -82.492
 953.7600, -76.266
 953.7700, -80.692
 953.7800, -79.615
 953.7900, -80.164
 953.8000, -82.172
 953.8100, -76.721
 953.8200,-210.000
 953.8300, -79.444
 953.8400, -81.083
 953.8500, -83.044
 953.8600, -78.355
 953.8700, -78.588
 953.8800, -81.441
 953.8900, -81.833
 953.9000, -78.319
 953.9100, -77.447
 953.9200, -78.660
 953.9300, -77.636
 953.9400, -79.016
 953.9500, -78.626
 953.9600, -79.147
 953.9700, -85.194
 953.9800, -79.344
 953.9900, -78.035
 954.0000, -76.671
 954.0100, -82.465
 954.0200, -77.542
 954.0300, -78.347
 954.0400, -80.576
 954.0500, -79.217
 954.0600, -78.263
 954.0700, -75.950
 954.0800, -76.114
 954.0900, -79.342
 954.1000, -87.358
 954.1100,-210.000
 954.1200, -79.185
 954.1300, -81.437
 954.1400, -78.922
 954.1500, -75.962
 954.1600, -76.946
 954.1700, -83.094
 954.1800, -78.046
 954.1900, -76.587
 954.2000, -79.362
 954.2100, -78.898
 954.2200, -84.575
 954.2300, -76.306
 954.2400, -79.136
 954.2500, -78.236
 954.2600, -81.810
 954.2700, -78.438
 954.2800, -83.124
 954.2900, -77.350
 954.3000, -78.939
 954.3100, -77.535
 954.3200, -77.382
 954.3300,-210.000
 954.3400,-210.000
 954.3500, -80.203
 954.3600,-210.000
 954.3700, -76.641
 954.3800, -82.868
 954.3900, -76.835
 954.4000, -78.047
 954.4100, -77.011
 954.4200, -78.620
 954.4300, -76.575
 954.4400, -77.773
 954.4500, -82.557
 954.4600, -85.013
 954.4700, -83.002
 954.4800, -80.739
 954.4900, -86.915
 954.5000, -77.250
 954.5100, -77.165
 954.5200, -77.310
 954.5300, -77.754
 954.5400, -78.187
 954.5500, -76.058
 954.5600, -76.053
 954.5700, -78.822
 954.5800, -78.616
 954.5900, -77.544
 954.6000, -81.618
 954.6100, -80.112
 954.6200, -91.305
 954.6300,-210.000
 954.6400, -86.296
 954.6500, -79.136
 954.6600, -77.684
 954.6700, -78.951
 954.6800, -76.721
 954.6900, -80.522
 954.7000, -78.264
 954.7100, -83.610
 954.7200, -78.073
 954.7300, -78.391
 954.7400, -78.433
 954.7500, -78.317
 954.7600, -83.921
 954.7700, -77.385
 954.7800, -82.942
 954.7900, -75.904
 954.8000, -78.376
 954.8100, -80.888
 954.8200,-210.000
 954.8300, -82.125
 954.8400, -78.173
 954.8500, -78.964
 954.8600, -83.301
 954.8700, -78.335
 954.8800, -79.947
 954.8900, -78.160
 954.9000, -79.732
 954.9100, -79.282
 954.9200, -79.791
 954.9300, -78.212
 954.9400, -77.018
 954.9500, -76.859
 954.9600, -77.057
 954.9700, -77.055
 954.9800, -78.734
 954.9900, -77.008
 955.0000, -80.331
 955.0100, -76.648
 955.0200, -78.279
 955.0300, -82.589
 955.0400, -76.680
 955.0500, -81.036
 955.0600, -77.362
 955.0700, -81.196
 955.0800, -79.565
 955.0900, -79.293
 955.1000, -77.093
 955.1100, -77.500
 955.1200, -79.533
 955.1300, -79.355
 955.1400, -81.951
 955.1500, -80.560
 955.1600, -77.009
 955.1700, -76.009
 955.1800, -79.870
 955.1900, -77.696
 955.2000, -80.771
 955.2100, -77.428
 955.2200, -75.823
 955.2300, -78.529
 955.2400, -78.487
 955.2500, -79.075
 955.2600, -76.705
 955.2700, -79.091
 955.2800, -81.986
 955.2900, -79.208
 955.3000, -79.469
 955.3100, -76.058
 955.3200, -80.852
 955.3300, -78.126
 955.3400, -77.538
 955.3500, -78.934
 955.3600, -75.499
 955.3700, -80.562
 955.3800, -77.710
 955.3900, -81.725
 955.4000, -79.892
 955.4100, -78.703
 955.4200, -78.045
 955.4300, -80.106
 955.4400, -78.217
 955.4500, -81.281
 955.4600, -79.459
 955.4700, -77.165
 955.4800, -77.560
 955.4900, -78.182
 955.5000, -85.543
 955.5100, -77.432
 955.5200, -87.613
 955.5300, -76.724
 955.5400, -80.239
 955.5500,-210.000
 955.5600,-210.000
 955.5700, -79.045
 955.5800, -79.634
 955.5900, -79.353
 955.6000, -75.598
 955.6100, -77.419
 955.6200, -85.414
 955.6300, -75.876
 955.6400, -75.325
 955.6500, -78.750
 955.6600, -76.408
 955.6700, -81.730
 955.6800,-210.000
 955.6900, -77.741
 955.7000, -79.480
 955.7100, -75.385
 955.7200, -85.604
 955.7300, -77.054
 955.7400, -78.685
 955.7500, -76.918
 955.7600, -79.179
 955.7700, -76.809
 955.7800, -76.955
 955.7900, -76.621
 955.8000, -77.148
 955.8100, -78.214
 955.8200, -79.099
 955.8300, -82.684
 955.8400, -76.511
 955.8500, -76.717
 955.8600, -76.017
 955.8700, -76.078
 955.8800, -77.697
 955.8900, -78.605
 955.9000, -79.718
 955.9100, -77.110
 955.9200, -78.330
 955.9300, -78.111
 955.9400, -77.205
 955.9500, -78.747
 955.9600, -83.124
 955.9700, -82.322
 955.9800, -77.494
 955.9900, -75.834
 956.0000, -78.489
 956.0100, -81.159
 956.0200, -76.771
 956.0300, -79.493
 956.0400, -76.088
 956.0500, -79.022
 956.0600, -82.966
 956.0700, -74.921
 956.0800, -77.350
 956.0900, -76.321
 956.1000, -82.534
 956.1100, -77.293
 956.1200, -76.088
 956.1300, -80.727
 956.1400,-210.000
 956.1500, -79.568
 956.1600, -76.993
 956.1700, -77.843
 956.1800,-210.000
 956.1900, -78.247
 956.2000, -78.317
 956.2100, -81.415
 956.2200, -79.516
 956.2300, -81.426
 956.2400, -81.269
 956.2500, -77.850
 956.2600, -76.602
 956.2700, -78.748
 956.2800, -77.818
 956.2900, -75.193
 956.3000, -76.974
 956.3100, -77.824
 956.3200, -77.855
 956.3300, -78.769
 956.3400, -77.512
 956.3500, -79.359
 956.3600, -79.507
 956.3700, -84.692
 956.3800, -80.010
 956.3900, -80.070
 956.4000, -78.374
 956.4100, -77.876
 956.4200, -76.132
 956.4300, -80.960
 956.4400, -77.201
 956.4500, -76.173
 956.4600, -78.569
 956.4700, -91.639
 956.4800, -76.598
 956.4900, -77.231
 956.5000, -74.933
 956.5100, -77.120
 956.5200, -85.286
 956.5300, -80.177
 956.5400, -75.364
 956.5500, -78.804
 956.5600, -80.131
 956.5700, -75.456
 956.5800, -77.498
 956.5900, -81.172
 956.6000, -78.257
 956.6100, -77.231
 956.6200, -77.652
 956.6300, -77.734
 956.6400, -75.850
 956.6500, -78.637
 956.6600, -85.821
 956.6700, -77.059
 956.6800, -83.172
 956.6900, -79.167
 956.7000, -75.954
 956.7100, -76.703
 956.7200, -83.031
 956.7300, -79.148
 956.7400, -77.322
 956.7500, -77.815
 956.7600, -80.023
 956.7700, -78.711
 956.7800, -80.141
 956.7900, -78.210
 956.8000, -77.590
 956.8100, -80.430
 956.8200, -82.157
 956.8300, -74.176
 956.8400, -76.751
 956.8500, -75.572
 956.8600, -77.247
 956.8700, -77.853
 956.8800, -76.962
 956.8900, -76.844
 956.9000, -80.281
 956.9100, -76.630
 956.9200, -79.550
 956.9300, -77.838
 956.9400, -78.872
 956.9500, -78.323
 956.9600, -76.382
 956.9700, -76.677
 956.9800, -78.624
 956.9900, -77.750
 957.0000, -76.690
 957.0100, -75.760
 957.0200, -77.609
 957.0300, -80.905
 957.0400, -75.764
 957.0500, -76.009
 957.0600, -77.146
 957.0700, -78.349
 957.0800, -86.852
 957.0900, -77.163
 957.1000, -76.469
 957.1100, -77.584
 957.1200, -77.692
 957.1300, -76.612
 957.1400, -82.721
 957.1500, -76.585
 957.1600, -84.639
 957.1700, -79.931
 957.1800, -75.359
 957.1900, -77.188
 957.2000, -77.962
 957.2100, -77.128
 957.2200, -77.937
 957.2300, -78.030
 957.2400, -76.085
 957.2500, -77.297
 957.2600, -75.110
 957.2700, -76.973
 957.2800, -79.856
 957.2900, -75.192
 957.3000, -74.792
 957.3100,-210.000
 957.3200, -78.579
 957.3300, -75.326
 957.3400, -78.776
 957.3500, -79.981
 957.3600, -76.649
 957.3700, -77.914
 957.3800, -78.961
 957.3900, -79.117
 957.4000, -77.672
 957.4100, -75.399
 957.4200, -79.935
 957.4300, -79.606
 957.4400, -76.545
 957.4500, -76.581
 957.4600, -78.618
 957.4700, -75.698
 957.4800, -77.812
 957.4900, -76.381
 957.5000, -76.223
 957.5100, -77.203
 957.5200, -76.353
 957.5300, -76.456
 957.5400, -76.810
 957.5500, -79.609
 957.5600, -77.565
 957.5700, -77.869
 957.5800, -77.094
 957.5900, -78.272
 957.6000, -76.305
 957.6100, -76.944
 957.6200, -75.696
 957.6300, -78.390
 957.6400, -76.010
 957.6500, -75.940
 957.6600, -75.770
 957.6700, -79.251
 957.6800, -75.869
 957.6900, -76.035
 957.7000, -77.518
 957.7100, -76.749
 957.7200, -76.706
 957.7300, -77.702
 957.7400, -75.358
 957.7500, -75.336
 957.7600, -78.350
 957.7700, -77.574
 957.7800, -74.024
 957.7900, -74.910
 957.8000, -78.261
 957.8100, -78.210
 957.8200, -78.182
 957.8300, -76.983
 957.8400, -77.624
 957.8500, -77.087
 957.8600, -86.648
 957.8700, -78.734
 957.8800, -77.973
 957.8900, -77.076
 957.9000, -76.516
 957.9100, -81.549
 957.9200, -76.262
 957.9300, -76.150
 957.9400, -75.643
 957.9500, -75.147
 957.9600, -76.373
 957.9700, -76.325
 957.9800, -75.511
 957.9900, -86.258
 958.0000, -75.845
 958.0100, -75.305
 958.0200, -75.221
 958.0300, -78.057
 958.0400, -77.218
 958.0500, -80.058
 958.0600, -76.445
 958.0700, -73.993
 958.0800, -75.747
 958.0900, -77.611
 958.1000, -74.313
 958.1100, -76.530
 958.1200, -78.464
 958.1300, -76.971
 958.1400, -75.976
 958.1500, -80.205
 958.1600, -75.859
 958.1700, -74.619
 958.1800, -80.735
 958.1900, -79.235
 958.2000, -80.082
 958.2100, -77.888
 958.2200, -77.192
 958.2300, -75.829
 958.2400, -77.452
 958.2500, -75.434
 958.2600, -76.668
 958.2700, -75.046
 958.2800, -74.100
 958.2900, -76.485
 958.3000, -76.594
 958.3100, -76.445
 958.3200, -75.800
 958.3300, -75.903
 958.3400, -76.207
 958.3500, -76.932
 958.3600, -74.570
 958.3700, -76.512
 958.3800, -77.330
 958.3900, -80.412
 958.4000, -78.313
 958.4100, -75.915
 958.4200, -75.280
 958.4300, -77.006
 958.4400, -74.154
 958.4500, -75.311
 958.4600, -75.335
 958.4700, -75.039
 958.4800, -77.150
 958.4900, -79.166
 958.5000, -76.905
 958.5100, -75.668
 958.5200, -77.160
 958.5300, -75.768
 958.5400, -74.953
 958.5500, -79.225
 958.5600, -77.274
 958.5700, -75.621
 958.5800, -75.940
 958.5900, -75.922
 958.6000, -77.883
 958.6100, -75.187
 958.6200, -74.901
 958.6300, -77.799
 958.6400, -78.657
 958.6500, -78.056
 958.6600, -76.114
 958.6700, -75.703
 958.6800, -77.819
 958.6900, -74.473
 958.7000, -79.146
 958.7100, -75.604
 958.7200, -75.512
 958.7300, -75.756
 958.7400, -79.330
 958.7500, -77.517
 958.7600, -75.123
 958.7700, -75.097
 958.7800, -76.105
 958.7900, -75.741
 958.8000, -76.704
 958.8100, -75.857
 958.8200, -75.430
 958.8300, -75.985
 958.8400, -74.364
 958.8500, -74.369
 958.8600, -77.800
 958.8700, -77.613
 958.8800, -77.443
 958.8900, -74.735
 958.9000, -76.279
 958.9100, -74.546
 958.9200, -76.487
 958.9300, -75.865
 958.9400, -77.067
 958.9500, -74.826
 958.9600, -76.127
 958.9700, -74.277
 958.9800, -73.289
 958.9900, -74.685
 959.0000, -74.044
 959.0100, -76.607
 959.0200, -81.427
 959.0300, -74.136
 959.0400, -76.617
 959.0500, -76.170
 959.0600, -76.271
 959.0700, -76.313
 959.0800, -74.794
 959.0900, -74.044
 959.1000, -75.065
 959.1100, -77.365
 959.1200, -74.017
 959.1300, -77.256
 959.1400, -75.998
 959.1500, -75.971
 959.1600, -76.388
 959.1700, -74.759
 959.1800, -76.780
 959.1900, -74.587
 959.2000, -76.927
 959.2100, -76.131
 959.2200, -75.142
 959.2300, -77.071
 959.2400, -74.785
 959.2500, -74.943
 959.2600, -75.251
 959.2700, -75.606
 959.2800, -76.671
 959.2900, -81.392
 959.3000, -76.120
 959.3100, -76.295
 959.3200, -74.703
 959.3300, -75.557
 959.3400, -74.912
 959.3500, -75.790
 959.3600, -73.850
 959.3700, -75.554
 959.3800, -78.174
 959.3900, -74.707
 959.4000, -74.592
 959.4100, -76.997
 959.4200, -75.303
 959.4300, -74.068
 959.4400, -73.618
 959.4500, -73.831
 959.4600, -76.046
 959.4700, -73.189
 959.4800, -75.642
 959.4900, -74.846
 959.5000, -77.793
 959.5100, -74.574
 959.5200, -75.805
 959.5300, -74.614
 959.5400, -75.003
 959.5500, -75.076
 959.5600, -74.348
 959.5700, -75.138
 959.5800, -75.008
 959.5900, -73.705
 959.6000, -73.415
 959.6100, -75.109
 959.6200, -76.122
 959.6300, -75.204
 959.6400, -74.040
 959.6500, -75.628
 959.6600, -75.239
 959.6700, -75.752
 959.6800, -75.064
 959.6900, -75.302
 959.7000, -75.008
 959.7100, -77.283
 959.7200, -74.958
 959.7300, -74.542
 959.7400, -74.407
 959.7500, -74.725
 959.7600, -73.646
 959.7700, -74.700
 959.7800, -75.291
 959.7900, -73.615
 959.8000, -75.614
 959.8100, -75.226
 959.8200, -73.977
 959.8300, -74.546
 959.8400, -73.535
 959.8500, -75.776
 959.8600, -75.223
 959.8700, -75.235
 959.8800, -75.984
 959.8900, -73.722
 959.9000, -75.666
 959.9100, -74.412
 959.9200, -73.930
 959.9300, -75.827
 959.9400, -74.636
 959.9500, -74.158
 959.9600, -73.950
 959.9700, -73.882
 959.9800, -73.690
 959.9900, -74.256
 960.0000, -75.390
 960.0100, -73.176
 960.0200, -74.716
 960.0300, -74.377
 960.0400, -75.188
 960.0500, -73.660
 960.0600, -74.077
 960.0700, -75.289
 960.0800, -75.599
 960.0900, -74.323
 960.1000, -74.414
 960.1100, -74.574
 960.1200, -74.571
 960.1300, -73.470
 960.1400, -73.328
 960.1500, -76.277
 960.1600, -74.167
 960.1700, -74.698
 960.1800, -74.720
 960.1900, -74.291
 960.2000, -73.305
 960.2100, -74.398
 960.2200, -73.508
 960.2300, -76.054
 960.2400, -74.931
 960.2500, -74.100
 960.2600, -76.858
 960.2700, -74.681
 960.2800, -75.306
 960.2900, -75.654
 960.3000, -74.656
 960.3100, -75.899
 960.3200, -74.207
 960.3300, -73.377
 960.3400, -73.666
 960.3500, -75.429
 960.3600, -75.941
 960.3700, -75.223
 960.3800, -73.693
 960.3900, -73.293
 960.4000, -74.413
 960.4100, -75.483
 960.4200, -73.924
 960.4300, -74.822
 960.4400, -76.043
 960.4500, -73.446
 960.4600, -73.501
 960.4700, -72.842
 960.4800, -74.002
 960.4900, -73.477
 960.5000, -73.740
 960.5100, -74.347
 960.5200, -73.163
 960.5300, -72.985
 960.5400, -73.013
 960.5500, -74.960
 960.5600, -75.802
 960.5700, -74.634
 960.5800, -73.210
 960.5900, -72.855
 960.6000, -74.077
 960.6100, -74.462
 960.6200, -73.027
 960.6300, -73.672
 960.6400, -74.161
 960.6500, -73.741
 960.6600, -75.777
 960.6700, -73.337
 960.6800, -74.625
 960.6900, -74.147
 960.7000, -73.770
 960.7100, -73.386
 960.7200, -73.900
 960.7300, -76.188
 960.7400, -73.252
 960.7500, -74.007
 960.7600, -72.888
 960.7700, -73.544
 960.7800, -73.749
 960.7900, -74.437
 960.8000, -73.994
 960.8100, -74.000
 960.8200, -73.481
 960.8300, -73.827
 960.8400, -74.914
 960.8500, -73.142
 960.8600, -73.760
 960.8700, -74.507
 960.8800, -74.296
 960.8900, -74.241
 960.9000, -73.771
 960.9100, -74.044
 960.9200, -73.446
 960.9300, -73.366
 960.9400, -73.766
 960.9500, -73.135
 960.9600, -74.597
 960.9700, -73.595
 960.9800, -74.542
 960.9900, -73.016
 961.0000, -72.824
 961.0100, -73.984
 961.0200, -74.526
 961.0300, -74.033
 961.0400, -74.273
 961.0500, -73.246
 961.0600, -73.656
 961.0700, -73.250
 961.0800, -72.547
 961.0900, -73.159
 961.1000, -73.191
 961.1100, -72.977
 961.1200, -73.260
 961.1300, -74.592
 961.1400, -73.483
 961.1500, -73.367
 961.1600, -74.146
 961.1700, -73.298
 961.1800, -73.172
 961.1900, -72.279
 961.2000, -72.817
 961.2100, -72.335
 961.2200, -72.755
 961.2300, -73.043
 961.2400, -72.913
 961.2500, -72.117
 961.2600, -73.094
 961.2700, -72.926
 961.2800, -72.578
 961.2900, -72.436
 961.3000, -73.034
 961.3100, -72.227
 961.3200, -73.303
 961.3300, -73.205
 961.3400, -72.877
 961.3500, -72.599
 961.3600, -72.829
 961.3700, -74.298
 961.3800, -74.016
 961.3900, -71.877
 961.4000, -71.966
 961.4100, -72.152
 961.4200, -73.171
 961.4300, -73.055
 961.4400, -72.341
 961.4500, -72.142
 961.4600, -73.551
 961.4700, -72.871
 961.4800, -72.649
 961.4900, -73.214
 961.5000, -72.530
 961.5100, -72.406
 961.5200, -73.389
 961.5300, -73.537
 961.5400, -72.309
 961.5500, -72.697
 961.5600, -73.836
 961.5700, -72.808
 961.5800, -72.197
 961.5900, -71.782
 961.6000, -72.118
 961.6100, -73.956
 961.6200, -72.693
 961.6300, -71.554
 961.6400, -72.463
 961.6500, -72.632
 961.6600, -71.748
 961.6700, -72.857
 961.6800, -72.309
 961.6900, -72.314
 961.7000, -71.762
 961.7100, -71.783
 961.7200, -71.884
 961.7300, -71.263
 961.7400, -71.578
 961.7500, -71.255
 961.7600, -72.412
 961.7700, -72.115
 961.7800, -72.531
 961.7900, -72.231
 961.8000, -71.957
 961.8100, -72.636
 961.8200, -73.092
 961.8300, -71.953
 961.8400, -71.356
 961.8500, -72.987
 961.8600, -71.749
 961.8700, -71.659
 961.8800, -71.601
 961.8900, -71.375
 961.9000, -71.921
 961.9100, -71.319
 961.9200, -71.346
 961.9300, -71.967
 961.9400, -72.616
 961.9500, -71.551
 961.9600, -72.669
 961.9700, -72.283
 961.9800, -71.755
 961.9900, -72.619
 962.0000, -71.898
 962.0100, -71.779
 962.0200, -72.014
 962.0300, -71.872
 962.0400, -71.596
 962.0500, -71.474
 962.0600, -71.390
 962.0700, -71.354
 962.0800, -71.333
 962.0900, -71.700
 962.1000, -71.391
 962.1100, -72.382
 962.1200, -71.843
 962.1300, -72.020
 962.1400, -71.703
 962.1500, -71.658
 962.1600, -71.555
 962.1700, -71.402
 962.1800, -71.800
 962.1900, -72.371
 962.2000, -71.504
 962.2100, -71.351
 962.2200, -71.758
 962.2300, -71.992
 962.2400, -71.544
 962.2500, -71.016
 962.2600, -72.244
 962.2700, -71.733
 962.2800, -70.952
 962.2900, -71.112
 962.3000, -71.948
 962.3100, -71.407
 962.3200, -71.837
 962.3300, -72.026
 962.3400, -71.134
 962.3500, -70.770
 962.3600, -71.502
 962.3700, -70.745
 962.3800, -71.913
 962.3900, -70.958
 962.4000, -71.854
 962.4100, -71.200
 962.4200, -71.184
 962.4300, -71.180
 962.4400, -71.269
 962.4500, -71.399
 962.4600, -71.638
 962.4700, -71.086
 962.4800, -71.349
 962.4900, -71.189
 962.5000, -71.453
 962.5100, -71.195
 962.5200, -71.503
 962.5300, -71.325
 962.5400, -71.240
 962.5500, -71.728
 962.5600, -71.163
 962.5700, -70.622
 962.5800, -70.950
 962.5900, -71.846
 962.6000, -71.136
 962.6100, -71.702
 962.6200, -72.296
 962.6300, -71.128
 962.6400, -70.916
 962.6500, -71.241
 962.6600, -71.047
 962.6700, -70.754
 962.6800, -71.519
 962.6900, -71.209
 962.7000, -71.575
 962.7100, -70.894
 962.7200, -71.434
 962.7300, -71.875
 962.7400, -71.461
 962.7500, -71.736
 962.7600, -72.253
 962.7700, -70.969
 962.7800, -71.385
 962.7900, -71.714
 962.8000, -71.311
 962.8100, -71.684
 962.8200, -71.908
 962.8300, -71.985
 962.8400, -71.856
 962.8500, -71.259
 962.8600, -71.122
 962.8700, -71.108
 962.8800, -71.935
 962.8900, -71.837
 962.9000, -71.043
 962.9100, -71.289
 962.9200, -71.278
 962.9300, -71.826
 962.9400, -71.262
 962.9500, -71.242
 962.9600, -71.512
 962.9700, -71.568
 962.9800, -71.740
 962.9900, -71.251
 963.0000, -70.880
 963.0100, -70.398
 963.0200, -70.517
 963.0300, -70.995
 963.0400, -71.759
 963.0500, -70.973
 963.0600, -70.903
 963.0700, -70.906
 963.0800, -71.099
 963.0900, -70.603
 963.1000, -70.551
 963.1100, -70.621
 963.1200, -70.585
 963.1300, -70.367
 963.1400, -70.229
 963.1500, -70.470
 963.1600, -70.935
 963.1700, -70.057
 963.1800, -69.707
 963.1900, -69.537
 963.2000, -70.776
 963.2100, -70.139
 963.2200, -69.757
 963.2300, -70.164
 963.2400, -69.951
 963.2500, -70.337
 963.2600, -70.157
 963.2700, -70.657
 963.2800, -69.891
 963.2900, -70.245
 963.3000, -69.233
 963.3100, -70.128
 963.3200, -69.806
 963.3300, -69.611
 963.3400, -69.785
 963.3500, -69.984
 963.3600, -69.762
 963.3700, -70.081
 963.3800, -69.634
 963.3900, -70.062
 963.4000, -69.532
 963.4100, -69.990
 963.4200, -69.849
 963.4300, -69.889
 963.4400, -69.774
 963.4500, -69.242
 963.4600, -68.958
 963.4700, -68.855
 963.4800, -69.220
 963.4900, -69.535
 963.5000, -68.997
 963.5100, -69.238
 963.5200, -69.076
 963.5300, -69.613
 963.5400, -69.563
 963.5500, -69.096
 963.5600, -69.076
 963.5700, -69.983
 963.5800, -69.354
 963.5900, -69.657
 963.6000, -69.689
 963.6100, -69.690
 963.6200, -70.202
 963.6300, -69.489
 963.6400, -69.823
 963.6500, -69.644
 963.6600, -69.347
 963.6700, -69.316
 963.6800, -69.576
 963.6900, -69.677
 963.7000, -69.390
 963.7100, -69.422
 963.7200, -69.396
 963.7300, -69.119
 963.7400, -69.173
 963.7500, -69.544
 963.7600, -69.162
 963.7700, -69.336
 963.7800, -69.247
 963.7900, -69.375
 963.8000, -69.127
 963.8100, -69.606
 963.8200, -69.177
 963.8300, -69.021
 963.8400, -69.049
 963.8500, -68.978
 963.8600, -68.606
 963.8700, -68.618
 963.8800, -69.442
 963.8900, -68.852
 963.9000, -68.697
 963.9100, -69.117
 963.9200, -68.851
 963.9300, -68.975
 963.9400, -68.923
 963.9500, -68.497
 963.9600, -69.144
 963.9700, -69.203
 963.9800, -69.131
 963.9900, -68.630
 964.0000, -68.301
 964.0100, -68.714
 964.0200, -68.960
 964.0300, -68.773
 964.0400, -68.677
 964.0500, -69.102
 964.0600, -68.627
 964.0700, -69.259
 964.0800, -68.928
 964.0900, -68.817
 964.1000, -68.565
 964.1100, -68.478
 964.1200, -68.619
 964.1300, -69.082
 964.1400, -68.817
 964.1500, -68.523
 964.1600, -68.594
 964.1700, -68.882
 964.1800, -68.425
 964.1900, -68.707
 964.2000, -68.548
 964.2100, -68.832
 964.2200, -67.716
 964.2300, -66.209
 964.2400, -64.536
 964.2500, -61.468
 964.2600, -58.233
 964.2700, -56.123
 964.2800, -54.636
 964.2900, -53.974
 964.3000, -53.713
 964.3100, -54.058
 964.3200, -54.068
 964.3300, -53.617
 964.3400, -53.184
 964.3500, -52.475
 964.3600, -52.427
 964.3700, -52.152
 964.3800, -51.761
 964.3900, -51.773
 964.4000, -51.509
 964.4100, -52.200
 964.4200, -53.837
 964.4300, -54.405
 964.4400, -55.582
 964.4500, -56.095
 964.4600, -55.996
 964.4700, -57.515
 964.4800, -57.315
 964.4900, -56.281
 964.5000, -57.021
 964.5100, -57.155
 964.5200, -58.900
 964.5300, -60.168
 964.5400, -57.543
 964.5500, -55.885
 964.5600, -53.768
 964.5700, -52.730
 964.5800, -53.099
 964.5900, -52.888
 964.6000, -52.313
 964.6100, -52.447
 964.6200, -52.038
 964.6300, -52.276
 964.6400, -53.418
 964.6500, -52.266
 964.6600, -51.618
 964.6700, -51.935
 964.6800, -52.426
 964.6900, -54.396
 964.7000, -55.875
 964.7100, -57.061
 964.7200, -60.707
 964.7300, -65.094
 964.7400, -67.160
 964.7500, -67.550
 964.7600, -67.819
 964.7700, -67.387
 964.7800, -67.622
 964.7900, -67.148
 964.8000, -67.008
 964.8100, -66.839
 964.8200, -66.833
 964.8300, -66.579
 964.8400, -66.699
 964.8500, -66.697
 964.8600, -66.541
 964.8700, -66.468
 964.8800, -66.586
 964.8900, -66.607
 964.9000, -66.767
 964.9100, -66.164
 964.9200, -66.147
 964.9300, -65.960
 964.9400, -64.413
 964.9500, -61.645
 964.9600, -59.206
 964.9700, -57.081
 964.9800, -54.834
 964.9900, -53.281
 965.0000, -52.685
 965.0100, -52.442
 965.0200, -52.520
 965.0300, -52.079
 965.0400, -51.737
 965.0500, -51.567
 965.0600, -51.794
 965.0700, -51.776
 965.0800, -51.642
 965.0900, -51.251
 965.1000, -51.517
 965.1100, -52.267
 965.1200, -53.457
 965.1300, -55.406
 965.1400, -57.756
 965.1500, -60.960
 965.1600, -63.554
 965.1700, -65.133
 965.1800, -65.933
 965.1900, -65.832
 965.2000, -66.108
 965.2100, -66.265
 965.2200, -66.055
 965.2300, -66.012
 965.2400, -66.153
 965.2500, -66.020
 965.2600, -65.694
 965.2700, -65.679
 965.2800, -65.526
 965.2900, -64.795
 965.3000, -63.050
 965.3100, -59.743
 965.3200, -56.034
 965.3300, -52.705
 965.3400, -49.753
 965.3500, -48.408
 965.3600, -47.753
 965.3700, -46.902
 965.3800, -46.330
 965.3900, -46.430
 965.4000, -46.428
 965.4100, -46.577
 965.4200, -46.827
 965.4300, -46.238
 965.4400, -46.188
 965.4500, -46.001
 965.4600, -46.205
 965.4700, -46.816
 965.4800, -47.456
 965.4900, -48.159
 965.5000, -49.215
 965.5100, -49.851
 965.5200, -50.809
 965.5300, -51.409
 965.5400, -50.592
 965.5500, -50.752
 965.5600, -50.092
 965.5700, -49.456
 965.5800, -48.540
 965.5900, -47.553
 965.6000, -47.212
 965.6100, -46.783
 965.6200, -46.852
 965.6300, -46.683
 965.6400, -46.491
 965.6500, -46.951
 965.6600, -47.020
 965.6700, -46.862
 965.6800, -46.611
 965.6900, -45.949
 965.7000, -46.257
 965.7100, -47.472
 965.7200, -48.063
 965.7300, -49.154
 965.7400, -49.275
 965.7500, -49.185
 965.7600, -49.436
 965.7700, -49.391
 965.7800, -48.947
 965.7900, -48.739
 965.8000, -48.374
 965.8100, -48.560
 965.8200, -48.729
 965.8300, -48.903
 965.8400, -48.837
 965.8500, -48.503
 965.8600, -48.467
 965.8700, -47.599
 965.8800, -46.329
 965.8900, -45.131
 965.9000, -44.133
 965.9100, -43.621
 965.9200, -43.111
 965.9300, -42.618
 965.9400, -42.361
 965.9500, -42.153
 965.9600, -42.077
 965.9700, -41.368
 965.9800, -40.722
 965.9900, -40.268
 966.0000, -39.869
 966.0100, -39.582
 966.0200, -38.553
 966.0300, -38.965
 966.0400, -39.837
 966.0500, -40.993
 966.0600, -41.950
 966.0700, -41.843
 966.0800, -40.542
 966.0900, -40.048
 966.1000, -39.753
 966.1100, -39.544
 966.1200, -39.926
 966.1300, -40.314
 966.1400, -41.286
 966.1500, -41.625
 966.1600, -41.822
 966.1700, -41.756
 966.1800, -41.996
 966.1900, -42.242
 966.2000, -41.883
 966.2100, -42.002
 966.2200, -42.352
 966.2300, -43.351
 966.2400, -44.439
 966.2500, -45.199
 966.2600, -46.038
 966.2700, -45.810
 966.2800, -44.939
 966.2900, -43.999
 966.3000, -43.376
 966.3100, -43.020
 966.3200, -42.863
 966.3300, -42.964
 966.3400, -42.953
 966.3500, -43.013
 966.3600, -42.982
 966.3700, -42.964
 966.3800, -42.743
 966.3900, -42.479
 966.4000, -42.257
 966.4100, -42.139
 966.4200, -42.175
 966.4300, -42.445
 966.4400, -42.728
 966.4500, -42.664
 966.4600, -42.735
 966.4700, -42.785
 966.4800, -42.686
 966.4900, -42.801
 966.5000, -42.410
 966.5100, -41.791
 966.5200, -41.323
 966.5300, -40.490
 966.5400, -39.986
 966.5500, -39.579
 966.5600, -39.412
 966.5700, -39.460
 966.5800, -39.897
 966.5900, -39.436
 966.6000, -39.438
 966.6100, -39.458
 966.6200, -39.526
 966.6300, -39.885
 966.6400, -40.258
 966.6500, -40.407
 966.6600, -41.230
 966.6700, -41.589
 966.6800, -41.982
 966.6900, -42.488
 966.7000, -43.431
 966.7100, -43.808
 966.7200, -44.086
 966.7300, -43.963
 966.7400, -43.873
 966.7500, -43.891
 966.7600, -43.963
 966.7700, -43.905
 966.7800, -44.147
 966.7900, -44.184
 966.8000, -44.208
 966.8100, -44.330
 966.8200, -44.773
 966.8300, -45.750
 966.8400, -47.143
 966.8500, -48.866
 966.8600, -50.157
 966.8700, -50.962
 966.8800, -52.328
 966.8900, -53.706
 966.9000, -55.783
 966.9100, -57.554
 966.9200, -57.778
 966.9300, -57.997
 966.9400, -57.170
 966.9500, -56.510
 966.9600, -56.721
 966.9700, -54.478
 966.9800, -52.421
 966.9900, -51.004
 967.0000, -49.320
 967.0100, -49.845
 967.0200, -50.563
 967.0300, -49.761
 967.0400, -49.475
 967.0500, -49.829
 967.0600, -49.921
 967.0700, -50.847
 967.0800, -49.817
 967.0900, -47.392
 967.1000, -45.238
 967.1100, -43.101
 967.1200, -41.768
 967.1300, -40.936
 967.1400, -39.861
 967.1500, -39.297
 967.1600, -39.280
 967.1700, -39.429
 967.1800, -39.950
 967.1900, -39.978
 967.2000, -39.720
 967.2100, -39.581
 967.2200, -39.480
 967.2300, -39.581
 967.2400, -39.707
 967.2500, -39.665
 967.2600, -40.185
 967.2700, -41.300
 967.2800, -42.184
 967.2900, -42.682
 967.3000, -42.269
 967.3100, -41.459
 967.3200, -40.494
 967.3300, -39.784
 967.3400, -39.588
 967.3500, -39.326
 967.3600, -40.041
 967.3700, -40.700
 967.3800, -40.643
 967.3900, -40.982
 967.4000, -40.432
 967.4100, -39.994
 967.4200, -40.472
 967.4300, -40.426
 967.4400, -40.981
 967.4500, -41.370
 967.4600, -41.021
 967.4700, -41.933
 967.4800, -43.068
 967.4900, -43.197
 967.5000, -43.626
 967.5100, -43.275
 967.5200, -43.033
 967.5300, -43.514
 967.5400, -43.591
 967.5500, -43.925
 967.5600, -44.038
 967.5700, -43.554
 967.5800, -43.432
 967.5900, -43.194
 967.6000, -42.734
 967.6100, -43.082
 967.6200, -42.692
 967.6300, -42.205
 967.6400, -42.303
 967.6500, -41.212
 967.6600, -40.034
 967.6700, -38.588
 967.6800, -37.505
 967.6900, -36.807
 967.7000, -36.557
 967.7100, -36.549
 967.7200, -36.676
 967.7300, -36.885
 967.7400, -37.012
 967.7500, -37.037
 967.7600, -37.080
 967.7700, -37.001
 967.7800, -36.721
 967.7900, -36.926
 967.8000, -37.265
 967.8100, -38.492
 967.8200, -40.403
 967.8300, -43.142
 967.8400, -44.786
 967.8500, -46.461
 967.8600, -47.040
 967.8700, -47.587
 967.8800, -48.995
 967.8900, -50.623
 967.9000, -52.967
 967.9100, -56.017
 967.9200, -58.476
 967.9300, -58.581
 967.9400, -57.506
 967.9500, -56.530
 967.9600, -55.289
 967.9700, -55.247
 967.9800, -54.940
 967.9900, -54.690
 968.0000, -54.306
 968.0100, -52.934
 968.0200, -51.151
 968.0300, -49.194
 968.0400, -47.446
 968.0500, -45.884
 968.0600, -44.398
 968.0700, -42.998
 968.0800, -41.711
 968.0900, -40.194
 968.1000, -38.625
 968.1100, -37.492
 968.1200, -35.945
 968.1300, -35.089
 968.1400, -34.226
 968.1500, -33.880
 968.1600, -33.685
 968.1700, -33.575
 968.1800, -33.458
 968.1900, -33.373
 968.2000, -33.399
 968.2100, -33.593
 968.2200, -33.810
 968.2300, -33.912
 968.2400, -33.908
 968.2500, -34.097
 968.2600, -34.667
 968.2700, -35.335
 968.2800, -35.833
 968.2900, -36.343
 968.3000, -36.732
 968.3100, -37.290
 968.3200, -37.798
 968.3300, -38.306
 968.3400, -38.571
 968.3500, -38.905
 968.3600, -39.357
 968.3700, -39.603
 968.3800, -39.930
 968.3900, -40.096
 968.4000, -40.310
 968.4100, -41.058
 968.4200, -41.838
 968.4300, -42.404
 968.4400, -42.819
 968.4500, -42.848
 968.4600, -43.046
 968.4700, -43.191
 968.4800, -42.934
 968.4900, -42.819
 968.5000, -42.734
 968.5100, -42.556
 968.5200, -42.789
 968.5300, -42.858
 968.5400, -42.680
 968.5500, -42.334
 968.5600, -42.097
 968.5700, -42.143
 968.5800, -42.199
 968.5900, -42.109
 968.6000, -41.956
 968.6100, -41.986
 968.6200, -41.992
 968.6300, -41.997
 968.6400, -41.927
 968.6500, -41.908
 968.6600, -41.944
 968.6700, -41.833
 968.6800, -42.064
 968.6900, -42.098
 968.7000, -42.285
 968.7100, -42.713
 968.7200, -42.740
 968.7300, -43.335
 968.7400, -43.165
 968.7500, -43.542
 968.7600, -44.224
 968.7700, -45.762
 968.7800, -47.383
 968.7900, -48.079
 968.8000, -48.392
 968.8100, -48.552
 968.8200, -48.514
 968.8300, -48.729
 968.8400, -48.212
 968.8500, -48.370
 968.8600, -48.921
 968.8700, -49.024
 968.8800, -49.380
 968.8900, -49.219
 968.9000, -48.457
 968.9100, -46.679
 968.9200, -45.368
 968.9300, -44.317
 968.9400, -43.205
 968.9500, -42.181
 968.9600, -41.820
 968.9700, -41.712
 968.9800, -41.378
 968.9900, -41.015
 969.0000, -40.127
 969.0100, -39.592
 969.0200, -39.281
 969.0300, -38.704
 969.0400, -38.094
 969.0500, -37.541
 969.0600, -37.219
 969.0700, -36.981
 969.0800, -36.842
 969.0900, -36.788
 969.1000, -36.857
 969.1100, -37.078
 969.1200, -37.341
 969.1300, -37.022
 969.1400, -36.911
 969.1500, -36.977
 969.1600, -37.113
 969.1700, -37.361
 969.1800, -37.532
 969.1900, -37.955
 969.2000, -38.661
 969.2100, -39.236
 969.2200, -39.574
 969.2300, -39.515
 969.2400, -39.694
 969.2500, -39.661
 969.2600, -39.690
 969.2700, -39.606
 969.2800, -39.665
 969.2900, -40.281
 969.3000, -41.157
 969.3100, -41.694
 969.3200, -41.889
 969.3300, -41.706
 969.3400, -41.621
 969.3500, -41.690
 969.3600, -41.848
 969.3700, -42.602
 969.3800, -43.678
 969.3900, -44.593
 969.4000, -46.033
 969.4100, -46.933
 969.4200, -47.588
 969.4300, -47.692
 969.4400, -47.567
 969.4500, -47.284
 969.4600, -47.340
 969.4700, -47.294
 969.4800, -47.726
 969.4900, -48.346
 969.5000, -49.135
 969.5100, -49.495
 969.5200, -48.948
 969.5300, -49.079
 969.5400, -48.755
 969.5500, -48.241
 969.5600, -48.553
 969.5700, -48.281
 969.5800, -48.025
 969.5900, -48.095
 969.6000, -48.374
 969.6100, -49.004
 969.6200, -49.619
 969.6300, -50.039
 969.6400, -49.911
 969.6500, -49.986
 969.6600, -50.041
 969.6700, -50.953
 969.6800, -52.215
 969.6900, -54.417
 969.7000, -58.089
 969.7100, -62.799
 969.7200, -66.004
 969.7300, -67.515
 969.7400, -68.153
 969.7500, -68.451
 969.7600, -68.512
 969.7700, -68.476
 969.7800, -68.625
 969.7900, -68.944
 969.8000, -68.757
 969.8100, -68.597
 969.8200, -69.296
 969.8300, -68.668
 969.8400, -68.807
 969.8500, -69.151
 969.8600, -68.805
 969.8700, -69.402
 969.8800, -68.959
 969.8900, -68.849
 969.9000, -68.964
 969.9100, -68.724
 969.9200, -68.805
 969.9300, -68.442
 969.9400, -68.930
 969.9500, -68.582
 969.9600, -68.402
 969.9700, -68.671
 969.9800, -68.491
 969.9900, -68.837
 970.0000, -68.559
 970.0100, -69.560
 970.0200, -68.698
 970.0300, -68.801
 970.0400, -68.698
 970.0500, -68.974
 970.0600, -69.080
 970.0700, -69.079
 970.0800, -68.826
 970.0900, -69.021
 970.1000, -69.352
 970.1100, -69.824
 970.1200, -69.502
 970.1300, -69.198
 970.1400, -69.622
 970.1500, -69.727
 970.1600, -69.623
 970.1700, -69.163
 970.1800, -69.840
 970.1900, -70.062
 970.2000, -69.846
 970.2100, -70.436
 970.2200, -70.468
 970.2300, -70.156
 970.2400, -69.836
 970.2500, -69.592
 970.2600, -69.816
 970.2700, -69.368
 970.2800, -69.593
 970.2900, -69.803
 970.3000, -70.155
 970.3100, -69.922
 970.3200, -69.878
 970.3300, -69.599
 970.3400, -69.304
 970.3500, -69.491
 970.3600, -69.020
 970.3700, -68.205
 970.3800, -66.262
 970.3900, -61.869
 970.4000, -57.699
 970.4100, -54.864
 970.4200, -52.137
 970.4300, -50.995
 970.4400, -50.803
 970.4500, -49.651
 970.4600, -48.962
 970.4700, -48.152
 970.4800, -48.018
 970.4900, -48.690
 970.5000, -49.310
 970.5100, -48.566
 970.5200, -48.847
 970.5300, -48.986
 970.5400, -49.816
 970.5500, -51.407
 970.5600, -52.187
 970.5700, -53.343
 970.5800, -56.454
 970.5900, -60.224
 970.6000, -65.112
 970.6100, -68.776
 970.6200, -69.411
 970.6300, -69.761
 970.6400, -70.374
 970.6500, -70.769
 970.6600, -71.045
 970.6700, -70.996
 970.6800, -70.790
 970.6900, -71.483
 970.7000, -71.899
 970.7100, -71.696
 970.7200, -71.081
 970.7300, -70.532
 970.7400, -71.421
 970.7500, -71.605
 970.7600, -71.741
 970.7700, -71.649
 970.7800, -71.845
 970.7900, -71.710
 970.8000, -72.036
 970.8100, -72.679
 970.8200, -71.936
 970.8300, -71.352
 970.8400, -71.077
 970.8500, -71.707
 970.8600, -72.124
 970.8700, -71.585
 970.8800, -71.375
 970.8900, -71.816
 970.9000, -71.636
 970.9100, -71.875
 970.9200, -71.834
 970.9300, -71.788
 970.9400, -71.185
 970.9500, -71.961
 970.9600, -72.414
 970.9700, -71.859
 970.9800, -72.206
 970.9900, -71.950
 971.0000, -72.116
 971.0100, -71.215
 971.0200, -71.058
 971.0300, -72.288
 971.0400, -72.572
 971.0500, -71.209
 971.0600, -71.331
 971.0700, -72.419
 971.0800, -72.154
 971.0900, -72.666
 971.1000, -72.075
 971.1100, -73.847
 971.1200, -71.887
 971.1300, -71.943
 971.1400, -72.402
 971.1500, -72.551
 971.1600, -71.456
 971.1700, -71.834
 971.1800, -73.121
 971.1900, -72.013
 971.2000, -71.809
 971.2100, -72.050
 971.2200, -71.786
 971.2300, -73.075
 971.2400, -73.219
 971.2500, -72.159
 971.2600, -73.010
 971.2700, -73.320
 971.2800, -73.857
 971.2900, -72.706
 971.3000, -71.667
 971.3100, -73.046
 971.3200, -73.155
 971.3300, -72.297
 971.3400, -72.922
 971.3500, -72.950
 971.3600, -72.081
 971.3700, -73.062
 971.3800, -72.543
 971.3900, -72.977
 971.4000, -72.286
 971.4100, -72.447
 971.4200, -72.374
 971.4300, -73.084
 971.4400, -72.616
 971.4500, -72.272
 971.4600, -72.769
 971.4700, -72.634
 971.4800, -73.523
 971.4900, -73.594
 971.5000, -72.970
 971.5100, -73.693
 971.5200, -73.575
 971.5300, -73.707
 971.5400, -73.343
 971.5500, -73.665
 971.5600, -73.151
 971.5700, -73.925
 971.5800, -73.104
 971.5900, -73.789
 971.6000, -73.616
 971.6100, -73.088
 971.6200, -72.845
 971.6300, -72.973
 971.6400, -74.175
 971.6500, -73.736
 971.6600, -74.603
 971.6700, -73.254
 971.6800, -73.128
 971.6900, -73.286
 971.7000, -72.554
 971.7100, -73.069
 971.7200, -74.763
 971.7300, -73.632
 971.7400, -72.710
 971.7500, -72.725
 971.7600, -72.558
 971.7700, -72.453
 971.7800, -72.448
 971.7900, -73.087
 971.8000, -74.104
 971.8100, -73.465
 971.8200, -72.402
 971.8300, -73.921
 971.8400, -72.797
 971.8500, -73.345
 971.8600, -72.500
 971.8700, -72.921
 971.8800, -73.517
 971.8900, -73.646
 971.9000, -73.473
 971.9100, -73.454
 971.9200, -74.268
 971.9300, -72.477
 971.9400, -75.039
 971.9500, -74.163
 971.9600, -73.189
 971.9700, -72.874
 971.9800, -73.145
 971.9900, -75.078
 972.0000, -73.642
 972.0100, -73.316
 972.0200, -72.231
 972.0300, -73.094
 972.0400, -72.872
 972.0500, -74.172
 972.0600, -73.642
 972.0700, -74.356
 972.0800, -74.139
 972.0900, -73.610
 972.1000, -74.365
 972.1100, -73.666
 972.1200, -74.968
 972.1300, -74.020
 972.1400, -74.566
 972.1500, -73.186
 972.1600, -74.261
 972.1700, -73.736
 972.1800, -73.835
 972.1900, -73.037
 972.2000, -75.024
 972.2100, -73.792
 972.2200, -74.606
 972.2300, -73.225
 972.2400, -74.297
 972.2500, -74.108
 972.2600, -73.012
 972.2700, -74.870
 972.2800, -73.516
 972.2900, -74.255
 972.3000, -74.284
 972.3100, -73.444
 972.3200, -74.424
 972.3300, -75.824
 972.3400, -74.331
 972.3500, -72.857
 972.3600, -74.980
 972.3700, -73.306
 972.3800, -74.234
 972.3900, -75.113
 972.4000, -75.344
 972.4100, -74.552
 972.4200, -75.207
 972.4300, -74.645
 972.4400, -73.344
 972.4500, -74.264
 972.4600, -74.287
 972.4700, -75.288
 972.4800, -74.337
 972.4900, -75.235
 972.5000, -75.433
 972.5100, -74.302
 972.5200, -74.816
 972.5300, -74.337
 972.5400, -76.309
 972.5500, -74.456
 972.5600, -74.180
 972.5700, -76.553
 972.5800, -73.401
 972.5900, -74.131
 972.6000, -75.040
 972.6100, -74.606
 972.6200, -73.262
 972.6300, -73.508
 972.6400, -73.300
 972.6500, -74.284
 972.6600, -76.040
 972.6700, -75.331
 972.6800, -73.617
 972.6900, -74.547
 972.7000, -74.788
 972.7100, -75.110
 972.7200, -74.304
 972.7300, -76.143
 972.7400, -73.951
 972.7500, -74.516
 972.7600, -74.901
 972.7700, -73.933
 972.7800, -75.177
 972.7900, -73.525
 972.8000, -74.354
 972.8100, -74.937
 972.8200, -75.386
 972.8300, -74.780
 972.8400, -74.831
 972.8500, -74.687
 972.8600, -73.954
 972.8700, -74.905
 972.8800, -75.052
 972.8900, -75.190
 972.9000, -74.155
 972.9100, -75.676
 972.9200, -74.552
 972.9300, -76.521
 972.9400, -74.055
 972.9500, -74.763
 972.9600, -75.972
 972.9700, -76.890
 972.9800, -74.362
 972.9900, -75.500
 973.0000, -74.478
 973.0100, -74.934
 973.0200, -77.148
 973.0300, -77.015
 973.0400, -76.212
 973.0500, -76.017
 973.0600, -75.426
 973.0700, -74.986
 973.0800, -74.147
 973.0900, -77.301
 973.1000, -74.482
 973.1100, -75.321
 973.1200, -76.147
 973.1300, -76.059
 973.1400, -77.797
 973.1500, -75.653
 973.1600, -75.711
 973.1700, -75.718
 973.1800, -76.756
 973.1900, -76.815
 973.2000, -73.817
 973.2100, -75.566
 973.2200, -78.866
 973.2300, -76.916
 973.2400, -74.744
 973.2500, -75.874
 973.2600, -75.232
 973.2700, -74.425
 973.2800, -76.507
 973.2900, -76.184
 973.3000, -76.541
 973.3100, -75.346
 973.3200, -74.665
 973.3300, -77.046
 973.3400, -75.765
 973.3500, -75.845
 973.3600, -75.802
 973.3700, -75.134
 973.3800, -77.591
 973.3900, -74.398
 973.4000, -74.393
 973.4100, -74.644
 973.4200, -74.118
 973.4300, -76.722
 973.4400, -76.701
 973.4500, -76.242
 973.4600, -75.701
 973.4700, -76.440
 973.4800, -76.529
 973.4900, -74.934
 973.5000, -75.065
 973.5100, -76.286
 973.5200, -74.860
 973.5300, -75.044
 973.5400, -76.282
 973.5500, -76.623
 973.5600, -76.440
 973.5700, -82.323
 973.5800, -77.600
 973.5900, -75.404
 973.6000, -75.331
 973.6100, -76.872
 973.6200, -76.130
 973.6300, -77.232
 973.6400, -74.330
 973.6500, -76.405
 973.6600, -76.731
 973.6700, -76.709
 973.6800, -75.812
 973.6900, -75.413
 973.7000, -75.956
 973.7100, -74.366
 973.7200, -75.792
 973.7300, -73.588
 973.7400, -75.576
 973.7500, -77.515
 973.7600, -77.984
 973.7700, -76.754
 973.7800, -76.313
 973.7900, -76.187
 973.8000, -78.108
 973.8100, -75.797
 973.8200, -76.127
 973.8300, -79.185
 973.8400, -79.117
 973.8500, -76.978
 973.8600, -75.389
 973.8700, -75.375
 973.8800, -76.480
 973.8900, -79.027
 973.9000, -75.445
 973.9100, -79.268
 973.9200, -77.603
 973.9300, -74.793
 973.9400, -76.343
 973.9500, -76.075
 973.9600, -76.688
 973.9700, -77.571
 973.9800, -77.314
 973.9900, -79.383
 974.0000, -77.557
 974.0100, -77.757
 974.0200, -75.447
 974.0300, -76.441
 974.0400, -74.934
 974.0500, -75.345
 974.0600, -75.184
 974.0700, -76.558
 974.0800, -78.235
 974.0900, -76.342
 974.1000, -76.348
 974.1100, -75.862
 974.1200, -78.517
 974.1300, -78.070
 974.1400, -75.221
 974.1500, -76.861
 974.1600, -76.023
 974.1700, -75.585
 974.1800, -76.805
 974.1900, -77.389
 974.2000, -77.049
 974.2100, -74.469
 974.2200, -77.445
 974.2300, -75.456
 974.2400, -77.545
 974.2500, -76.930
 974.2600, -77.361
 974.2700, -75.571
 974.2800, -76.086
 974.2900, -76.733
 974.3000, -76.805
 974.3100, -75.375
 974.3200, -77.455
 974.3300, -75.089
 974.3400, -77.324
 974.3500, -78.182
 974.3600, -76.906
 974.3700, -85.398
 974.3800, -77.358
 974.3900, -76.933
 974.4000, -78.341
 974.4100, -78.158
 974.4200, -75.605
 974.4300, -78.139
 974.4400, -76.747
 974.4500, -79.821
 974.4600, -76.332
 974.4700, -80.406
 974.4800, -77.144
 974.4900, -76.217
 974.5000, -76.525
 974.5100, -80.616
 974.5200, -84.208
 974.5300, -76.547
 974.5400, -75.671
 974.5500, -76.421
 974.5600, -76.384
 974.5700, -76.583
 974.5800, -77.021
 974.5900, -79.257
 974.6000, -75.322
 974.6100, -77.544
 974.6200, -77.578
 974.6300, -75.135
 974.6400, -74.794
 974.6500, -76.079
 974.6600, -78.800
 974.6700, -82.183
 974.6800, -78.049
 974.6900, -85.192
 974.7000, -75.868
 974.7100, -76.439
 974.7200, -76.421
 974.7300, -80.587
 974.7400, -75.432
 974.7500, -76.481
 974.7600, -77.596
 974.7700, -77.021
 974.7800, -78.486
 974.7900, -78.757
 974.8000, -78.386
 974.8100, -79.314
 974.8200, -77.876
 974.8300,-210.000
 974.8400, -76.744
 974.8500, -77.618
 974.8600, -82.818
 974.8700, -77.291
 974.8800, -77.366
 974.8900, -75.247
 974.9000, -80.439
 974.9100, -80.861
 974.9200, -77.475
 974.9300, -76.672
 974.9400, -78.653
 974.9500, -77.381
 974.9600, -79.965
 974.9700, -81.191
 974.9800, -79.292
 974.9900, -75.399
 975.0000, -77.054
 975.0100, -77.254
 975.0200, -80.003
 975.0300, -77.057
 975.0400, -77.663
 975.0500, -78.003
 975.0600, -78.221
 975.0700, -76.762
 975.0800, -76.942
 975.0900, -79.631
 975.1000, -79.323
 975.1100, -76.901
 975.1200, -77.750
 975.1300, -78.192
 975.1400, -79.270
 975.1500, -81.623
 975.1600, -74.843
 975.1700, -80.059
 975.1800, -75.879
 975.1900, -81.591
 975.2000, -76.844
 975.2100, -77.431
 975.2200, -75.694
 975.2300, -80.227
 975.2400, -76.815
 975.2500, -77.950
 975.2600, -80.525
 975.2700, -78.993
 975.2800, -77.167
 975.2900, -76.912
 975.3000, -77.416
 975.3100, -81.090
 975.3200, -78.053
 975.3300, -78.214
 975.3400, -77.598
 975.3500, -77.005
 975.3600, -77.733
 975.3700, -77.056
 975.3800, -75.943
 975.3900, -82.056
 975.4000, -77.334
 975.4100, -75.885
 975.4200, -78.158
 975.4300, -83.471
 975.4400, -76.879
 975.4500, -76.935
 975.4600, -79.742
 975.4700, -77.981
 975.4800, -75.747
 975.4900, -78.047
 975.5000, -82.714
 975.5100, -78.475
 975.5200, -83.935
 975.5300, -74.660
 975.5400, -76.719
 975.5500, -89.986
 975.5600, -79.239
 975.5700, -80.746
 975.5800, -75.824
 975.5900, -79.719
 975.6000, -79.460
 975.6100, -77.107
 975.6200, -77.498
 975.6300, -77.509
 975.6400, -77.955
 975.6500, -80.267
 975.6600, -77.234
 975.6700, -80.956
 975.6800, -84.853
 975.6900, -79.800
 975.7000, -80.104
 975.7100, -78.152
 975.7200, -81.127
 975.7300, -77.016
 975.7400, -77.885
 975.7500, -95.802
 975.7600, -77.096
 975.7700, -82.693
 975.7800, -79.231
 975.7900, -76.963
 975.8000, -84.510
 975.8100, -76.796
 975.8200, -75.323
 975.8300, -79.272
 975.8400, -76.056
 975.8500, -80.757
 975.8600, -78.401
 975.8700, -76.066
 975.8800, -82.451
 975.8900, -79.282
 975.9000, -79.804
 975.9100, -80.358
 975.9200, -80.164
 975.9300, -77.121
 975.9400, -77.804
 975.9500, -85.961
 975.9600, -78.330
 975.9700, -77.463
 975.9800, -78.936
 975.9900,-210.000
 976.0000, -79.579
 976.0100, -86.770
 976.0200, -77.730
 976.0300, -79.090
 976.0400, -82.071
 976.0500, -87.691
 976.0600, -78.944
 976.0700, -82.590
 976.0800, -75.623
 976.0900, -76.864
 976.1000, -82.755
 976.1100, -81.633
 976.1200, -80.033
 976.1300, -77.065
 976.1400, -77.791
 976.1500, -78.379
 976.1600, -78.742
 976.1700, -77.048
 976.1800, -83.677
 976.1900,-210.000
 976.2000, -75.900
 976.2100, -77.185
 976.2200, -79.668
 976.2300, -84.351
 976.2400, -79.164
 976.2500, -76.300
 976.2600, -75.988
 976.2700, -79.754
 976.2800, -84.400
 976.2900, -78.138
 976.3000, -80.816
 976.3100, -77.174
 976.3200, -83.470
 976.3300, -79.329
 976.3400, -87.123
 976.3500, -75.784
 976.3600, -83.561
 976.3700, -82.617
 976.3800, -85.565
 976.3900, -81.731
 976.4000, -78.066
 976.4100, -77.400
 976.4200, -77.554
 976.4300,-210.000
 976.4400, -81.661
 976.4500, -79.682
 976.4600, -77.322
 976.4700, -80.651
 976.4800, -78.636
 976.4900, -88.862
 976.5000, -81.128
 976.5100, -78.513
 976.5200, -79.710
 976.5300, -85.266
 976.5400, -76.216
 976.5500, -77.622
 976.5600, -78.053
 976.5700, -78.714
 976.5800, -80.776
 976.5900, -78.845
 976.6000, -80.187
 976.6100, -76.561
 976.6200, -81.347
 976.6300, -77.145
 976.6400, -87.301
 976.6500, -82.152
 976.6600, -78.455
 976.6700, -77.996
 976.6800, -85.715
 976.6900, -80.996
 976.7000, -78.552
 976.7100, -77.646
 976.7200, -79.476
 976.7300, -77.809
 976.7400, -79.831
 976.7500, -80.327
 976.7600, -83.187
 976.7700, -76.528
 976.7800, -81.362
 976.7900, -80.892
 976.8000, -76.344
 976.8100, -85.580
 976.8200, -82.771
 976.8300, -79.427
 976.8400, -78.426
 976.8500, -84.075
 976.8600, -78.571
 976.8700, -77.611
 976.8800, -79.587
 976.8900, -79.506
 976.9000, -80.960
 976.9100, -81.564
 976.9200, -75.977
 976.9300, -78.407
 976.9400, -77.799
 976.9500, -83.115
 976.9600, -82.300
 976.9700, -79.272
 976.9800, -82.239
 976.9900, -77.698
 977.0000, -76.711
 977.0100, -76.545
 977.0200, -78.053
 977.0300, -80.434
 977.0400, -79.560
 977.0500,-210.000
 977.0600, -80.402
 977.0700,-210.000
 977.0800, -79.784
 977.0900, -78.650
 977.1000, -80.887
 977.1100, -84.419
 977.1200, -77.545
 977.1300, -76.966
 977.1400, -79.694
 977.1500, -85.810
 977.1600, -76.558
 977.1700, -79.981
 977.1800, -78.070
 977.1900, -79.385
 977.2000, -81.977
 977.2100, -81.034
 977.2200, -77.857
 977.2300, -78.785
 977.2400, -79.908
 977.2500, -79.811
 977.2600, -79.405
 977.2700, -81.861
 977.2800, -81.325
 977.2900, -83.830
 977.3000,-210.000
 977.3100, -82.750
 977.3200, -80.507
 977.3300, -79.282
 977.3400, -85.990
 977.3500, -83.428
 977.3600, -80.999
 977.3700, -85.168
 977.3800, -75.242
 977.3900, -79.444
 977.4000, -86.968
 977.4100, -77.553
 977.4200,-210.000
 977.4300, -79.293
 977.4400, -81.037
 977.4500,-210.000
 977.4600, -77.464
 977.4700, -81.896
 977.4800, -78.965
 977.4900, -77.716
 977.5000, -78.233
 977.5100, -76.044
 977.5200, -80.315
 977.5300, -81.478
 977.5400, -80.029
 977.5500, -77.355
 977.5600, -84.035
 977.5700, -77.727
 977.5800, -79.048
 977.5900, -77.742
 977.6000, -77.043
 977.6100, -76.678
 977.6200, -86.893
 977.6300, -78.844
 977.6400, -82.933
 977.6500, -78.357
 977.6600, -79.058
 977.6700, -79.867
 977.6800, -84.482
 977.6900, -76.531
 977.7000, -77.562
 977.7100, -80.065
 977.7200, -81.189
 977.7300, -78.613
 977.7400, -88.650
 977.7500, -97.569
 977.7600, -78.163
 977.7700, -81.041
 977.7800, -78.343
 977.7900, -77.404
 977.8000, -81.800
 977.8100, -81.176
 977.8200, -82.546
 977.8300, -78.321
 977.8400, -79.553
 977.8500, -88.229
 977.8600, -79.121
 977.8700, -83.807
 977.8800, -76.155
 977.8900, -81.992
 977.9000,-210.000
 977.9100, -88.098
 977.9200, -80.191
 977.9300, -82.518
 977.9400, -76.163
 977.9500, -76.223
 977.9600,-210.000
 977.9700, -81.163
 977.9800, -78.569
 977.9900, -82.477
 978.0000, -81.444
 978.0100, -77.829
 978.0200, -78.465
 978.0300, -80.973
 978.0400, -77.596
 978.0500,-210.000
 978.0600, -79.580
 978.0700, -82.066
 978.0800, -98.665
 978.0900, -78.345
 978.1000, -78.945
 978.1100, -77.716
 978.1200, -75.819
 978.1300, -80.537
 978.1400, -81.039
 978.1500,-210.000
 978.1600,-210.000
 978.1700, -82.591
 978.1800, -82.552
 978.1900, -79.453
 978.2000, -80.497
 978.2100, -77.086
 978.2200, -78.851
 978.2300, -77.756
 978.2400, -79.070
 978.2500, -81.341
 978.2600, -76.668
 978.2700, -77.041
 978.2800, -78.693
 978.2900, -81.557
 978.3000, -77.549
 978.3100, -78.011
 978.3200, -78.920
 978.3300, -81.467
 978.3400, -82.042
 978.3500, -89.785
 978.3600, -77.671
 978.3700, -77.419
 978.3800, -77.694
 978.3900, -77.388
 978.4000, -79.856
 978.4100, -78.798
 978.4200, -78.487
 978.4300, -80.585
 978.4400, -78.562
 978.4500, -76.330
 978.4600, -79.297
 978.4700, -77.594
 978.4800,-210.000
 978.4900,-210.000
 978.5000, -76.269
 978.5100, -82.423
 978.5200, -79.515
 978.5300, -79.726
 978.5400,-210.000
 978.5500, -81.292
 978.5600, -82.483
 978.5700, -79.378
 978.5800, -79.910
 978.5900, -76.807
 978.6000, -77.375
 978.6100,-210.000
 978.6200, -86.038
 978.6300, -78.948
 978.6400, -81.942
 978.6500,-210.000
 978.6600, -83.157
 978.6700, -80.491
 978.6800, -80.136
 978.6900, -78.419
 978.7000, -89.248
 978.7100, -78.595
 978.7200, -81.325
 978.7300, -77.956
 978.7400, -80.169
 978.7500, -84.141
 978.7600, -80.289
 978.7700, -79.725
 978.7800, -93.956
 978.7900, -90.180
 978.8000, -81.105
 978.8100, -76.441
 978.8200, -77.613
 978.8300, -77.447
 978.8400, -78.183
 978.8500, -86.459
 978.8600, -78.151
 978.8700, -79.715
 978.8800,-210.000
 978.8900, -80.279
 978.9000, -78.905
 978.9100, -76.934
 978.9200, -82.071
 978.9300,-210.000
 978.9400, -82.579
 978.9500, -75.943
 978.9600, -80.992
 978.9700, -79.315
 978.9800, -78.481
 978.9900, -79.636
 979.0000, -78.388
 979.0100, -79.601
 979.0200, -81.883
 979.0300, -82.807
 979.0400, -81.864
 979.0500, -82.349
 979.0600, -78.630
 979.0700, -76.189
 979.0800, -79.465
 979.0900, -77.988
 979.1000, -84.596
 979.1100, -84.843
 979.1200, -89.200
 979.1300,-210.000
 979.1400, -77.811
 979.1500, -78.592
 979.1600, -79.596
 979.1700,-210.000
 979.1800, -75.890
 979.1900, -82.409
 979.2000, -82.329
 979.2100, -76.521
 979.2200, -83.932
 979.2300,-210.000
 979.2400, -77.164
 979.2500, -80.319
 979.2600,-210.000
 979.2700, -81.197
 979.2800, -82.830
 979.2900, -82.508
 979.3000, -83.641
 979.3100, -81.912
 979.3200, -79.270
 979.3300, -78.623
 979.3400, -76.779
 979.3500, -80.948
 979.3600, -83.107
 979.3700, -78.318
 979.3800, -82.634
 979.3900, -79.138
 979.4000, -81.029
 979.4100, -78.380
 979.4200, -79.636
 979.4300, -81.358
 979.4400, -80.612
 979.4500, -82.190
 979.4600, -77.407
 979.4700, -78.425
 979.4800,-210.000
 979.4900, -82.669
 979.5000, -82.763
 979.5100, -79.923
 979.5200, -80.310
 979.5300, -78.039
 979.5400, -80.703
 979.5500, -77.769
 979.5600, -78.401
 979.5700, -79.188
 979.5800, -79.359
 979.5900, -81.158
 979.6000, -78.304
 979.6100, -77.490
 979.6200, -78.605
 979.6300, -81.095
 979.6400, -79.959
 979.6500, -80.842
 979.6600, -78.502
 979.6700, -87.263
 979.6800, -79.793
 979.6900, -76.888
 979.7000, -81.577
 979.7100, -86.615
 979.7200, -82.347
 979.7300, -95.755
 979.7400, -80.462
 979.7500, -79.935
 979.7600,-210.000
 979.7700, -79.002
 979.7800, -79.933
 979.7900, -77.082
 979.8000, -77.571
 979.8100, -78.259
 979.8200, -82.599
 979.8300, -82.274
 979.8400, -88.136
 979.8500, -77.916
 979.8600, -80.314
 979.8700,-210.000
 979.8800, -80.116
 979.8900, -76.688
 979.9000, -79.634
 979.9100, -80.935
 979.9200, -81.441
 979.9300, -80.829
 979.9400, -78.166
 979.9500, -77.971
 979.9600, -88.991
 979.9700, -86.802
 979.9800,-210.000
 979.9900, -82.793
 980.0000, -78.042
 980.0100, -79.973
 980.0200, -84.243
 980.0300, -78.482
 980.0400, -82.164
 980.0500, -80.546
 980.0600, -83.813
 980.0700, -77.819
 980.0800, -81.518
 980.0900, -81.824
 980.1000, -83.311
 980.1100,-210.000
 980.1200, -82.515
 980.1300, -81.054
 980.1400, -81.867
 980.1500, -79.818
 980.1600,-210.000
 980.1700, -81.369
 980.1800, -81.452
 980.1900, -77.396
 980.2000, -78.968
 980.2100, -83.799
 980.2200, -89.274
 980.2300,-210.000
 980.2400,-210.000
 980.2500, -78.925
 980.2600, -82.938
 980.2700, -79.571
 980.2800, -81.550
 980.2900,-210.000
 980.3000, -99.000
 980.3100, -77.919
 980.3200,-210.000
 980.3300, -77.466
 980.3400,-210.000
 980.3500, -77.210
 980.3600, -80.070
 980.3700, -79.374
 980.3800, -81.425
 980.3900, -78.515
 980.4000,-210.000
 980.4100, -85.520
 980.4200, -79.595
 980.4300, -80.496
 980.4400, -77.542
 980.4500, -81.854
 980.4600,-210.000
 980.4700, -79.310
 980.4800, -83.958
 980.4900, -79.525
 980.5000, -78.171
 980.5100, -80.903
 980.5200, -78.107
 980.5300, -86.552
 980.5400, -77.742
 980.5500, -81.581
 980.5600, -85.464
 980.5700, -80.883
 980.5800, -82.247
 980.5900, -84.856
 980.6000, -84.383
 980.6100, -80.765
 980.6200, -81.906
 980.6300, -81.034
 980.6400, -78.431
 980.6500, -78.998
 980.6600,-210.000
 980.6700, -81.360
 980.6800, -79.757
 980.6900, -82.205
 980.7000, -80.425
 980.7100, -93.996
 980.7200, -83.634
 980.7300, -81.454
 980.7400, -80.046
 980.7500, -81.534
 980.7600, -79.090
 980.7700, -77.542
 980.7800, -81.042
 980.7900, -79.342
 980.8000, -77.749
 980.8100, -80.856
 980.8200, -83.441
 980.8300,-210.000
 980.8400, -76.343
 980.8500, -79.651
 980.8600,-210.000
 980.8700,-210.000
 980.8800, -82.413
 980.8900, -81.721
 980.9000, -82.140
 980.9100, -77.399
 980.9200, -82.905
 980.9300, -80.079
 980.9400, -78.193
 980.9500, -76.922
 980.9600, -82.064
 980.9700, -84.081
 980.9800, -81.950
 980.9900, -88.323
 981.0000, -83.845
 981.0100, -84.827
 981.0200, -79.976
 981.0300, -78.410
 981.0400, -80.710
 981.0500, -76.813
 981.0600, -81.161
 981.0700, -78.209
 981.0800, -83.980
 981.0900,-210.000
 981.1000, -80.446
 981.1100, -79.735
 981.1200, -80.787
 981.1300, -77.395
 981.1400, -81.947
 981.1500,-210.000
 981.1600,-210.000
 981.1700, -77.928
 981.1800, -84.318
 981.1900, -84.646
 981.2000, -82.562
 981.2100, -80.615
 981.2200, -82.445
 981.2300, -75.709
 981.2400, -85.531
 981.2500, -80.776
 981.2600, -76.911
 981.2700, -86.185
 981.2800, -84.192
 981.2900, -78.466
 981.3000, -77.722
 981.3100, -82.732
 981.3200, -79.947
 981.3300, -80.490
 981.3400, -76.828
 981.3500, -88.047
 981.3600, -80.240
 981.3700, -85.822
 981.3800, -77.439
 981.3900,-210.000
 981.4000, -83.381
 981.4100, -77.855
 981.4200, -79.152
 981.4300, -75.052
 981.4400, -81.726
 981.4500, -80.148
 981.4600, -94.267
 981.4700, -77.198
 981.4800, -85.085
 981.4900,-210.000
 981.5000, -81.875
 981.5100, -80.246
 981.5200, -78.544
 981.5300,-210.000
 981.5400, -79.212
 981.5500, -90.191
 981.5600, -78.332
 981.5700, -92.032
 981.5800, -77.907
 981.5900, -77.202
 981.6000, -79.408
 981.6100, -80.102
 981.6200, -78.423
 981.6300, -78.303
 981.6400, -79.556
 981.6500,-210.000
 981.6600,-210.000
 981.6700, -78.490
 981.6800, -86.430
 981.6900, -77.280
 981.7000, -79.954
 981.7100, -91.148
 981.7200, -80.941
 981.7300, -78.591
 981.7400, -79.313
 981.7500, -82.613
 981.7600, -78.969
 981.7700, -78.265
 981.7800, -78.673
 981.7900,-210.000
 981.8000, -78.335
 981.8100, -83.470
 981.8200, -82.388
 981.8300, -75.851
 981.8400,-210.000
 981.8500, -79.676
 981.8600, -81.535
 981.8700, -87.296
 981.8800, -80.242
 981.8900, -82.797
 981.9000, -78.999
 981.9100,-210.000
 981.9200, -80.272
 981.9300, -94.563
 981.9400, -80.253
 981.9500, -80.432
 981.9600,-210.000
 981.9700, -79.478
 981.9800,-210.000
 981.9900, -77.869
 982.0000, -80.525
 982.0100,-210.000
 982.0200, -80.089
 982.0300, -80.091
 982.0400, -81.461
 982.0500, -83.722
 982.0600, -76.091
 982.0700, -83.280
 982.0800, -80.745
 982.0900, -83.422
 982.1000, -78.784
 982.1100, -82.273
 982.1200, -79.555
 982.1300, -82.500
 982.1400, -86.756
 982.1500, -77.829
 982.1600, -81.232
 982.1700, -82.769
 982.1800, -80.736
 982.1900, -82.388
 982.2000, -82.166
 982.2100,-210.000
 982.2200, -84.319
 982.2300, -99.369
 982.2400, -75.926
 982.2500, -85.342
 982.2600, -86.364
 982.2700, -77.796
 982.2800, -81.678
 982.2900,-210.000
 982.3000, -81.188
 982.3100, -79.472
 982.3200, -83.242
 982.3300, -82.968
 982.3400, -80.635
 982.3500, -85.835
 982.3600, -81.265
 982.3700, -78.472
 982.3800, -79.607
 982.3900, -78.631
 982.4000, -87.684
 982.4100,-101.943
 982.4200, -79.499
 982.4300, -81.236
 982.4400, -79.537
 982.4500, -82.310
 982.4600, -76.318
 982.4700, -77.890
 982.4800, -83.471
 982.4900,-210.000
 982.5000, -89.315
 982.5100, -77.835
 982.5200, -79.159
 982.5300, -81.074
 982.5400,-210.000
 982.5500, -83.459
 982.5600, -80.018
 982.5700, -82.489
 982.5800, -80.052
 982.5900, -80.791
 982.6000, -85.086
 982.6100, -80.684
 982.6200,-210.000
 982.6300,-210.000
 982.6400, -80.643
 982.6500, -83.534
 982.6600,-210.000
 982.6700, -77.193
 982.6800, -81.897
 982.6900, -84.673
 982.7000, -84.878
 982.7100, -76.983
 982.7200, -80.022
 982.7300, -92.756
 982.7400, -80.351
 982.7500, -80.479
 982.7600, -82.313
 982.7700, -85.980
 982.7800, -80.265
 982.7900, -85.060
 982.8000, -82.255
 982.8100, -82.124
 982.8200, -77.690
 982.8300, -79.963
 982.8400, -90.013
 982.8500, -83.097
 982.8600, -80.236
 982.8700, -82.363
 982.8800, -78.329
 982.8900, -80.840
 982.9000, -82.185
 982.9100,-210.000
 982.9200,-210.000
 982.9300, -78.348
 982.9400,-210.000
 982.9500, -84.216
 982.9600, -80.843
 982.9700, -77.516
 982.9800, -77.238
 982.9900, -86.080
 983.0000, -85.548
 983.0100, -81.743
 983.0200, -80.755
 983.0300, -80.825
 983.0400, -82.328
 983.0500, -86.674
 983.0600, -77.900
 983.0700, -83.455
 983.0800, -77.675
 983.0900, -81.101
 983.1000,-210.000
 983.1100, -78.322
 983.1200,-210.000
 983.1300, -78.443
 983.1400, -94.027
 983.1500, -82.304
 983.1600, -82.666
 983.1700, -79.051
 983.1800,-210.000
 983.1900, -79.769
 983.2000, -85.313
 983.2100, -84.489
 983.2200,-210.000
 983.2300, -81.416
 983.2400, -77.424
 983.2500, -79.732
 983.2600, -76.722
 983.2700,-210.000
 983.2800, -77.576
 983.2900, -78.478
 983.3000, -86.141
 983.3100, -79.115
 983.3200, -80.555
 983.3300,-101.315
 983.3400, -79.496
 983.3500,-210.000
 983.3600, -85.780
 983.3700,-210.000
 983.3800, -79.841
 983.3900, -85.292
 983.4000, -82.654
 983.4100, -83.036
 983.4200,-210.000
 983.4300, -80.398
 983.4400, -84.693
 983.4500, -78.735
 983.4600, -78.366
 983.4700, -83.785
 983.4800, -88.464
 983.4900, -87.867
 983.5000, -84.248
 983.5100, -79.411
 983.5200, -92.180
 983.5300, -80.402
 983.5400, -78.833
 983.5500, -82.320
 983.5600, -79.334
 983.5700,-210.000
 983.5800, -80.888
 983.5900, -79.854
 983.6000, -85.916
 983.6100,-210.000
 983.6200, -79.233
 983.6300, -81.768
 983.6400, -80.631
 983.6500, -79.946
 983.6600, -78.789
 983.6700, -78.436
 983.6800, -83.191
 983.6900, -77.833
 983.7000, -77.604
 983.7100, -81.031
 983.7200, -84.011
 983.7300, -79.174
 983.7400, -79.241
 983.7500, -78.500
 983.7600, -77.905
 983.7700, -93.971
 983.7800, -96.534
 983.7900, -78.138
 983.8000, -91.770
 983.8100,-210.000
 983.8200,-210.000
 983.8300, -79.532
 983.8400, -82.997
 983.8500, -90.340
 983.8600, -82.382
 983.8700, -81.285
 983.8800, -79.677
 983.8900, -83.242
 983.9000, -80.630
 983.9100, -86.835
 983.9200, -80.019
 983.9300, -87.901
 983.9400, -79.362
 983.9500, -81.733
 983.9600, -78.248
 983.9700, -91.553
 983.9800, -81.317
 983.9900,-210.000
 984.0000, -79.713
 984.0100,-210.000
 984.0200,-210.000
 984.0300, -79.685
 984.0400, -79.709
 984.0500, -77.372
 984.0600, -78.651
 984.0700, -82.097
 984.0800,-102.562
 984.0900, -84.354
 984.1000, -91.930
 984.1100, -84.372
 984.1200, -76.477
 984.1300, -79.166
 984.1400, -79.781
 984.1500, -79.837
 984.1600, -78.949
 984.1700, -91.974
 984.1800, -83.918
 984.1900, -79.437
 984.2000, -79.106
 984.2100, -79.929
 984.2200, -81.955
 984.2300, -89.827
 984.2400, -78.557
 984.2500, -79.889
 984.2600, -78.810
 984.2700, -79.333
 984.2800, -82.897
 984.2900, -84.339
 984.3000,-210.000
 984.3100, -78.534
 984.3200, -95.489
 984.3300, -86.757
 984.3400, -79.711
 984.3500, -77.222
 984.3600, -84.843
 984.3700, -79.472
 984.3800, -79.971
 984.3900, -79.386
 984.4000,-210.000
 984.4100, -80.013
 984.4200, -81.842
 984.4300, -84.843
 984.4400, -82.056
 984.4500, -80.154
 984.4600,-210.000
 984.4700, -78.297
 984.4800, -83.060
 984.4900, -78.522
 984.5000, -80.535
 984.5100, -80.382
 984.5200, -83.032
 984.5300, -80.381
 984.5400, -78.306
 984.5500, -95.278
 984.5600, -90.623
 984.5700, -79.829
 984.5800, -76.281
 984.5900, -77.668
 984.6000, -83.050
 984.6100, -82.069
 984.6200, -81.784
 984.6300, -80.861
 984.6400, -79.786
 984.6500, -82.123
 984.6600,-210.000
 984.6700, -81.763
 984.6800, -81.654
 984.6900,-210.000
 984.7000, -80.685
 984.7100, -79.157
 984.7200, -78.576
 984.7300, -79.429
 984.7400, -80.348
 984.7500, -81.768
 984.7600, -81.772
 984.7700, -85.286
 984.7800, -83.672
 984.7900,-210.000
 984.8000, -89.383
 984.8100, -79.411
 984.8200, -79.278
 984.8300, -78.933
 984.8400,-210.000
 984.8500, -82.273
 984.8600, -84.787
 984.8700, -83.585
 984.8800, -81.261
 984.8900, -88.109
 984.9000,-210.000
 984.9100, -82.595
 984.9200, -82.876
 984.9300, -79.390
 984.9400, -78.135
 984.9500, -84.418
 984.9600,-210.000
 984.9700, -81.226
 984.9800, -81.204
 984.9900, -79.632
 985.0000, -89.588
 985.0100, -83.052
 985.0200, -81.859
 985.0300, -83.309
 985.0400, -81.399
 985.0500, -76.839
 985.0600, -80.006
 985.0700, -79.918
 985.0800,-210.000
 985.0900,-210.000
 985.1000, -86.306
 985.1100, -82.333
 985.1200, -80.038
 985.1300, -80.286
 985.1400, -77.797
 985.1500, -79.260
 985.1600,-210.000
 985.1700, -81.944
 985.1800, -79.420
 985.1900, -80.133
 985.2000, -76.979
 985.2100, -93.177
 985.2200, -81.007
 985.2300, -80.042
 985.2400,-210.000
 985.2500, -76.495
 985.2600, -85.546
 985.2700,-210.000
 985.2800,-210.000
 985.2900, -75.740
 985.3000, -77.652
 985.3100, -81.495
 985.3200, -76.391
 985.3300, -78.821
 985.3400, -79.427
 985.3500, -76.973
 985.3600, -78.790
 985.3700, -83.408
 985.3800, -82.314
 985.3900, -78.822
 985.4000,-210.000
 985.4100, -77.800
 985.4200, -78.711
 985.4300, -86.626
 985.4400, -78.232
 985.4500, -81.117
 985.4600, -76.828
 985.4700, -79.759
 985.4800, -98.202
 985.4900, -77.613
 985.5000, -79.573
 985.5100, -79.791
 985.5200, -93.331
 985.5300,-210.000
 985.5400, -81.523
 985.5500, -79.875
 985.5600, -81.674
 985.5700, -78.695
 985.5800,-210.000
 985.5900, -87.709
 985.6000, -82.874
 985.6100,-210.000
 985.6200, -82.391
 985.6300, -78.327
 985.6400, -76.526
 985.6500, -84.912
 985.6600, -82.407
 985.6700, -78.720
 985.6800,-210.000
 985.6900, -78.498
 985.7000, -83.507
 985.7100, -76.476
 985.7200,-210.000
 985.7300, -79.773
 985.7400, -79.412
 985.7500, -78.558
 985.7600,-210.000
 985.7700, -85.307
 985.7800, -79.770
 985.7900, -84.174
 985.8000, -78.982
 985.8100, -79.846
 985.8200, -81.541
 985.8300,-210.000
 985.8400, -80.285
 985.8500, -83.298
 985.8600,-210.000
 985.8700, -82.755
 985.8800, -98.678
 985.8900, -84.851
 985.9000, -84.626
 985.9100, -77.437
 985.9200, -77.100
 985.9300, -81.586
 985.9400, -79.732
 985.9500, -80.109
 985.9600, -86.015
 985.9700, -84.279
 985.9800, -79.864
 985.9900, -75.478
 986.0000, -83.960
 986.0100, -82.208
 986.0200, -77.974
 986.0300, -78.373
 986.0400,-210.000
 986.0500,-210.000
 986.0600,-113.283
 986.0700, -79.167
 986.0800, -77.050
 986.0900, -87.042
 986.1000, -80.531
 986.1100, -85.024
 986.1200, -79.722
 986.1300, -79.290
 986.1400, -79.129
 986.1500, -79.482
 986.1600, -78.137
 986.1700, -82.296
 986.1800, -80.170
 986.1900, -81.402
 986.2000, -89.826
 986.2100,-210.000
 986.2200, -78.761
 986.2300, -77.440
 986.2400, -81.269
 986.2500,-210.000
 986.2600, -80.420
 986.2700, -80.050
 986.2800, -89.905
 986.2900,-210.000
 986.3000, -80.406
 986.3100, -87.114
 986.3200, -81.726
 986.3300, -80.483
 986.3400,-210.000
 986.3500, -91.194
 986.3600, -80.614
 986.3700,-210.000
 986.3800, -78.768
 986.3900, -81.164
 986.4000, -82.389
 986.4100, -76.545
 986.4200, -81.041
 986.4300, -77.647
 986.4400, -80.630
 986.4500,-210.000
 986.4600, -79.445
 986.4700,-210.000
 986.4800, -80.230
 986.4900, -85.039
 986.5000, -80.692
 986.5100,-210.000
 986.5200, -89.967
 986.5300, -78.219
 986.5400, -77.152
 986.5500, -80.744
 986.5600, -78.461
 986.5700, -87.459
 986.5800, -79.684
 986.5900, -90.017
 986.6000,-210.000
 986.6100, -80.357
 986.6200, -82.074
 986.6300, -81.428
 986.6400, -81.572
 986.6500, -97.288
 986.6600, -80.569
 986.6700, -80.379
 986.6800, -75.581
 986.6900, -81.416
 986.7000,-210.000
 986.7100,-210.000
 986.7200, -83.020
 986.7300, -76.660
 986.7400, -85.779
 986.7500, -79.570
 986.7600, -81.686
 986.7700, -86.123
 986.7800, -79.908
 986.7900, -93.832
 986.8000,-210.000
 986.8100, -86.805
 986.8200, -81.827
 986.8300, -81.382
 986.8400, -81.808
 986.8500, -78.672
 986.8600, -78.593
 986.8700, -80.419
 986.8800, -78.376
 986.8900, -80.959
 986.9000,-210.000
 986.9100, -80.556
 986.9200, -77.131
 986.9300, -78.707
 986.9400, -78.256
 986.9500, -94.188
 986.9600, -92.100
 986.9700, -78.736
 986.9800, -88.241
 986.9900, -81.316
 987.0000, -81.445
 987.0100, -81.608
 987.0200, -83.544
 987.0300, -82.118
 987.0400, -78.317
 987.0500, -83.689
 987.0600, -79.422
 987.0700, -80.775
 987.0800, -82.990
 987.0900, -83.193
 987.1000, -81.054
 987.1100, -79.877
 987.1200, -79.460
 987.1300, -79.367
 987.1400, -77.854
 987.1500, -79.472
 987.1600, -78.800
 987.1700, -79.310
 987.1800, -82.803
 987.1900, -82.192
 987.2000, -78.076
 987.2100, -84.958
 987.2200, -91.115
 987.2300, -81.394
 987.2400, -86.375
 987.2500, -90.412
 987.2600, -82.476
 987.2700, -80.599
 987.2800, -78.648
 987.2900, -80.686
 987.3000, -84.002
 987.3100, -86.753
 987.3200,-210.000
 987.3300, -91.821
 987.3400, -82.531
 987.3500, -82.899
 987.3600, -77.319
 987.3700, -78.752
 987.3800, -88.122
 987.3900, -80.998
 987.4000, -80.537
 987.4100, -77.495
 987.4200, -98.634
 987.4300,-210.000
 987.4400, -81.348
 987.4500, -81.392
 987.4600, -83.352
 987.4700,-210.000
 987.4800, -79.965
 987.4900, -80.897
 987.5000, -91.806
 987.5100, -79.980
 987.5200, -86.531
 987.5300, -82.117
 987.5400, -82.846
 987.5500, -83.853
 987.5600, -89.205
 987.5700, -83.663
 987.5800, -80.453
 987.5900, -77.711
 987.6000, -79.737
 987.6100, -81.257
 987.6200, -80.430
 987.6300, -77.880
 987.6400, -82.035
 987.6500, -84.817
 987.6600, -82.335
 987.6700,-210.000
 987.6800, -81.829
 987.6900,-210.000
 987.7000, -79.598
 987.7100, -81.680
 987.7200, -83.771
 987.7300, -83.496
 987.7400, -80.203
 987.7500, -80.643
 987.7600, -78.539
 987.7700, -79.847
 987.7800, -78.133
 987.7900, -82.723
 987.8000,-210.000
 987.8100,-210.000
 987.8200, -85.141
 987.8300, -79.192
 987.8400, -82.900
 987.8500, -77.992
 987.8600, -80.927
 987.8700, -84.002
 987.8800, -78.672
 987.8900,-210.000
 987.9000, -80.616
 987.9100, -80.698
 987.9200, -80.696
 987.9300,-210.000
 987.9400, -77.682
 987.9500, -84.976
 987.9600, -78.200
 987.9700, -81.116
 987.9800, -78.589
 987.9900, -80.718
 988.0000, -93.930
 988.0100, -81.051
 988.0200, -81.866
 988.0300, -83.427
 988.0400, -76.812
 988.0500, -78.183
 988.0600, -83.451
 988.0700, -78.326
 988.0800, -90.416
 988.0900, -82.066
 988.1000, -80.359
 988.1100, -80.530
 988.1200, -78.867
 988.1300, -83.861
 988.1400, -91.296
 988.1500, -87.068
 988.1600, -79.076
 988.1700, -78.738
 988.1800,-210.000
 988.1900, -81.147
 988.2000, -83.685
 988.2100, -77.692
 988.2200, -83.729
 988.2300, -82.630
 988.2400, -78.796
 988.2500, -81.740
 988.2600, -80.812
 988.2700, -77.762
 988.2800, -78.545
 988.2900, -76.717
 988.3000, -83.228
 988.3100, -79.851
 988.3200, -90.456
 988.3300, -77.847
 988.3400, -79.355
 988.3500, -82.975
 988.3600, -81.019
 988.3700, -81.388
 988.3800, -79.953
 988.3900, -77.663
 988.4000, -83.115
 988.4100, -82.794
 988.4200, -81.822
 988.4300, -78.787
 988.4400, -81.332
 988.4500,-210.000
 988.4600, -79.382
 988.4700, -79.397
 988.4800, -78.226
 988.4900, -80.816
 988.5000, -80.586
 988.5100, -79.369
 988.5200, -87.418
 988.5300,-210.000
 988.5400, -83.648
 988.5500,-210.000
 988.5600, -79.426
 988.5700, -79.130
 988.5800, -84.022
 988.5900,-210.000
 988.6000,-210.000
 988.6100, -85.551
 988.6200, -76.697
 988.6300, -77.885
 988.6400, -81.145
 988.6500, -82.659
 988.6600, -87.998
 988.6700, -98.612
 988.6800, -80.484
 988.6900, -80.376
 988.7000, -85.146
 988.7100, -82.480
 988.7200, -78.119
 988.7300, -78.557
 988.7400, -79.241
 988.7500, -78.608
 988.7600, -85.940
 988.7700,-210.000
 988.7800, -82.071
 988.7900,-210.000
 988.8000, -82.396
 988.8100, -82.300
 988.8200, -78.892
 988.8300,-210.000
 988.8400, -78.234
 988.8500, -77.560
 988.8600,-210.000
 988.8700, -82.130
 988.8800, -79.542
 988.8900, -78.969
 988.9000, -80.172
 988.9100, -80.124
 988.9200,-210.000
 988.9300, -84.556
 988.9400, -84.358
 988.9500, -83.282
 988.9600, -82.994
 988.9700, -80.449
 988.9800, -78.381
 988.9900, -78.446
 989.0000, -81.415
 989.0100, -92.449
 989.0200, -82.146
 989.0300,-210.000
 989.0400, -82.742
 989.0500, -79.515
 989.0600, -85.748
 989.0700, -78.708
 989.0800, -81.514
 989.0900, -87.069
 989.1000, -82.016
 989.1100, -80.638
 989.1200, -79.359
 989.1300, -79.264
 989.1400, -85.312
 989.1500, -82.225
 989.1600, -81.114
 989.1700, -79.428
 989.1800, -78.949
 989.1900, -79.476
 989.2000, -79.323
 989.2100, -77.109
 989.2200, -80.895
 989.2300, -81.849
 989.2400,-210.000
 989.2500, -79.347
 989.2600, -80.494
 989.2700, -77.070
 989.2800, -81.114
 989.2900, -79.782
 989.3000,-210.000
 989.3100, -88.853
 989.3200,-210.000
 989.3300,-210.000
 989.3400, -80.933
 989.3500, -78.451
 989.3600, -84.125
 989.3700, -79.565
 989.3800,-210.000
 989.3900, -78.874
 989.4000,-210.000
 989.4100, -91.561
 989.4200, -77.195
 989.4300,-210.000
 989.4400, -84.649
 989.4500, -79.051
 989.4600, -84.452
 989.4700,-210.000
 989.4800,-210.000
 989.4900, -78.709
 989.5000, -78.444
 989.5100, -81.923
 989.5200, -79.215
 989.5300, -81.845
 989.5400,-210.000
 989.5500, -81.299
 989.5600, -78.319
 989.5700, -80.300
 989.5800, -82.113
 989.5900, -82.066
 989.6000, -78.758
 989.6100, -76.884
 989.6200, -82.588
 989.6300,-210.000
 989.6400, -81.268
 989.6500,-210.000
 989.6600, -78.399
 989.6700,-210.000
 989.6800,-210.000
 989.6900, -80.175
 989.7000, -77.016
 989.7100, -82.740
 989.7200, -78.516
 989.7300, -77.184
 989.7400,-210.000
 989.7500,-210.000
 989.7600, -78.445
 989.7700,-210.000
 989.7800, -81.040
 989.7900,-210.000
 989.8000, -77.948
 989.8100, -82.572
 989.8200, -82.818
 989.8300, -76.808
 989.8400, -78.875
 989.8500, -96.351
 989.8600, -82.983
 989.8700, -78.919
 989.8800, -79.531
 989.8900,-210.000
 989.9000, -85.533
 989.9100, -82.941
 989.9200, -83.989
 989.9300, -94.778
 989.9400, -87.420
 989.9500, -90.606
 989.9600, -77.748
 989.9700,-210.000
 989.9800, -80.988
 989.9900, -90.254
 990.0000, -79.815
 990.0100, -82.854
 990.0200, -85.205
 990.0300, -83.763
 990.0400, -78.310
 990.0500, -80.649
 990.0600, -82.584
 990.0700,-210.000
 990.0800,-210.000
 990.0900, -85.751
 990.1000, -78.770
 990.1100, -78.121
 990.1200, -86.005
 990.1300, -81.887
 990.1400, -99.694
 990.1500, -77.179
 990.1600, -81.146
 990.1700, -81.297
 990.1800, -85.031
 990.1900, -81.847
 990.2000, -80.597
 990.2100,-210.000
 990.2200, -82.608
 990.2300, -80.112
 990.2400, -79.234
 990.2500, -80.455
 990.2600, -79.281
 990.2700, -78.298
 990.2800, -78.184
 990.2900, -79.941
 990.3000, -77.481
 990.3100, -85.853
 990.3200, -92.530
 990.3300, -80.159
 990.3400, -89.150
 990.3500, -82.746
 990.3600,-210.000
 990.3700, -78.226
 990.3800, -79.417
 990.3900, -78.186
 990.4000, -79.554
 990.4100, -77.353
 990.4200, -83.616
 990.4300, -85.931
 990.4400,-210.000
 990.4500, -85.913
 990.4600, -78.132
 990.4700, -90.295
 990.4800, -76.417
 990.4900, -81.039
 990.5000, -78.477
 990.5100, -90.543
 990.5200, -83.685
 990.5300, -78.809
 990.5400, -80.604
 990.5500, -79.436
 990.5600, -79.676
 990.5700, -87.974
 990.5800, -84.126
 990.5900, -80.651
 990.6000,-210.000
 990.6100, -81.283
 990.6200, -81.128
 990.6300, -77.792
 990.6400,-210.000
 990.6500, -83.032
 990.6600,-210.000
 990.6700, -79.786
 990.6800,-210.000
 990.6900,-210.000
 990.7000, -79.241
 990.7100,-102.649
 990.7200, -79.868
 990.7300, -77.216
 990.7400, -78.359
 990.7500, -78.789
 990.7600, -83.589
 990.7700, -81.592
 990.7800, -81.468
 990.7900, -81.906
 990.8000, -76.531
 990.8100, -77.655
 990.8200, -79.564
 990.8300, -83.023
 990.8400, -88.652
 990.8500, -79.441
 990.8600, -83.447
 990.8700, -80.030
 990.8800,-210.000
 990.8900, -86.967
 990.9000, -78.488
 990.9100,-210.000
 990.9200, -79.589
 990.9300, -85.381
 990.9400, -92.280
 990.9500, -83.277
 990.9600, -83.893
 990.9700, -80.870
 990.9800,-210.000
 990.9900, -77.748
 991.0000, -79.331
 991.0100, -78.355
 991.0200, -82.405
 991.0300, -85.087
 991.0400,-210.000
 991.0500, -79.400
 991.0600, -79.401
 991.0700, -80.072
 991.0800, -83.922
 991.0900, -84.311
 991.1000,-210.000
 991.1100, -81.857
 991.1200, -77.769
 991.1300, -79.921
 991.1400, -82.605
 991.1500, -96.877
 991.1600, -80.988
 991.1700, -83.960
 991.1800, -90.039
 991.1900, -80.387
 991.2000, -78.503
 991.2100, -82.683
 991.2200,-210.000
 991.2300, -77.508
 991.2400, -79.624
 991.2500, -77.941
 991.2600, -78.038
 991.2700, -82.414
 991.2800, -89.997
 991.2900, -77.103
 991.3000, -83.186
 991.3100, -82.773
 991.3200, -80.277
 991.3300, -79.668
 991.3400, -81.970
 991.3500,-210.000
 991.3600, -86.164
 991.3700, -82.522
 991.3800, -79.970
 991.3900, -81.713
 991.4000, -79.868
 991.4100, -84.715
 991.4200,-210.000
 991.4300, -81.863
 991.4400, -79.259
 991.4500, -80.690
 991.4600, -92.493
 991.4700, -85.302
 991.4800,-210.000
 991.4900,-210.000
 991.5000,-210.000
 991.5100, -82.703
 991.5200, -82.677
 991.5300, -79.289
 991.5400,-210.000
 991.5500, -85.789
 991.5600, -80.989
 991.5700, -84.606
 991.5800,-210.000
 991.5900,-210.000
 991.6000, -82.461
 991.6100,-210.000
 991.6200, -76.613
 991.6300,-103.574
 991.6400, -83.073
 991.6500, -82.678
 991.6600, -84.911
 991.6700, -77.433
 991.6800, -78.414
 991.6900, -79.288
 991.7000, -91.000
 991.7100, -80.775
 991.7200, -81.226
 991.7300, -92.009
 991.7400, -79.758
 991.7500,-210.000
 991.7600, -79.125
 991.7700, -80.685
 991.7800, -78.665
 991.7900, -80.421
 991.8000, -79.023
 991.8100, -93.433
 991.8200, -91.673
 991.8300, -77.717
 991.8400, -82.751
 991.8500, -78.135
 991.8600,-210.000
 991.8700, -80.475
 991.8800, -77.514
 991.8900, -77.411
 991.9000, -78.747
 991.9100,-210.000
 991.9200, -79.929
 991.9300, -79.408
 991.9400, -78.977
 991.9500, -79.407
 991.9600, -88.423
 991.9700, -84.515
 991.9800, -77.922
 991.9900, -80.242
 992.0000, -86.086
 992.0100, -83.361
 992.0200, -83.009
 992.0300, -77.714
 992.0400, -83.672
 992.0500, -78.921
 992.0600, -87.760
 992.0700, -81.861
 992.0800,-210.000
 992.0900, -79.137
 992.1000, -86.381
 992.1100, -80.966
 992.1200,-210.000
 992.1300, -86.811
 992.1400, -84.667
 992.1500,-210.000
 992.1600, -83.073
 992.1700, -77.437
 992.1800, -77.948
 992.1900, -80.974
 992.2000, -76.965
 992.2100,-210.000
 992.2200, -78.792
 992.2300, -83.698
 992.2400, -77.814
 992.2500,-210.000
 992.2600, -87.877
 992.2700, -86.710
 992.2800, -79.483
 992.2900, -89.089
 992.3000, -82.540
 992.3100,-210.000
 992.3200, -79.325
 992.3300, -85.638
 992.3400, -84.232
 992.3500,-210.000
 992.3600, -79.480
 992.3700, -83.926
 992.3800, -81.237
 992.3900, -77.831
 992.4000, -77.433
 992.4100, -81.866
 992.4200, -80.345
 992.4300, -78.574
 992.4400, -86.770
 992.4500, -79.001
 992.4600,-210.000
 992.4700, -82.634
 992.4800, -84.268
 992.4900, -80.140
 992.5000, -87.527
 992.5100, -77.242
 992.5200, -78.192
 992.5300, -79.082
 992.5400, -85.383
 992.5500,-210.000
 992.5600, -79.553
 992.5700, -95.208
 992.5800, -88.292
 992.5900, -78.991
 992.6000, -82.873
 992.6100,-210.000
 992.6200, -79.475
 992.6300, -88.348
 992.6400, -76.579
 992.6500, -80.355
 992.6600, -77.937
 992.6700, -87.440
 992.6800,-210.000
 992.6900, -76.498
 992.7000, -80.831
 992.7100, -81.584
 992.7200, -80.359
 992.7300, -78.307
 992.7400, -79.566
 992.7500, -82.109
 992.7600,-210.000
 992.7700,-210.000
 992.7800, -85.087
 992.7900, -84.802
 992.8000, -87.610
 992.8100, -81.671
 992.8200, -81.205
 992.8300, -81.451
 992.8400, -87.885
 992.8500, -79.606
 992.8600, -78.651
 992.8700,-210.000
 992.8800, -84.124
 992.8900, -80.849
 992.9000, -78.100
 992.9100, -80.417
 992.9200, -79.735
 992.9300, -80.969
 992.9400, -79.551
 992.9500, -78.260
 992.9600,-210.000
 992.9700, -79.574
 992.9800, -90.868
 992.9900, -77.728
 993.0000,-210.000
 993.0100, -91.531
 993.0200, -80.108
 993.0300, -84.872
 993.0400, -79.140
 993.0500, -76.632
 993.0600,-210.000
 993.0700, -85.782
 993.0800, -79.605
 993.0900, -79.043
 993.1000, -88.274
 993.1100, -79.659
 993.1200, -77.892
 993.1300, -79.481
 993.1400, -82.861
 993.1500, -98.697
 993.1600, -77.259
 993.1700, -85.964
 993.1800,-210.000
 993.1900,-210.000
 993.2000, -85.157
 993.2100,-210.000
 993.2200,-101.530
 993.2300, -78.400
 993.2400, -81.731
 993.2500, -79.261
 993.2600, -80.028
 993.2700, -82.189
 993.2800,-210.000
 993.2900, -79.348
 993.3000, -81.532
 993.3100, -83.448
 993.3200, -76.885
 993.3300, -79.977
 993.3400, -80.000
 993.3500,-210.000
 993.3600, -82.233
 993.3700, -84.654
 993.3800, -77.940
 993.3900, -86.954
 993.4000,-210.000
 993.4100,-210.000
 993.4200,-210.000
 993.4300, -82.838
 993.4400, -75.658
 993.4500, -90.646
 993.4600, -84.960
 993.4700,-210.000
 993.4800, -79.540
 993.4900, -81.827
 993.5000, -86.379
 993.5100, -99.930
 993.5200, -80.300
 993.5300,-210.000
 993.5400, -83.567
 993.5500, -87.583
 993.5600, -77.337
 993.5700, -85.313
 993.5800, -80.609
 993.5900, -82.111
 993.6000, -81.611
 993.6100, -85.437
 993.6200, -82.240
 993.6300, -82.041
 993.6400,-210.000
 993.6500,-210.000
 993.6600, -75.741
 993.6700, -78.102
 993.6800, -80.216
 993.6900, -78.622
 993.7000, -80.652
 993.7100,-210.000
 993.7200, -80.074
 993.7300, -81.685
 993.7400,-210.000
 993.7500, -77.066
 993.7600, -93.018
 993.7700, -82.276
 993.7800,-210.000
 993.7900, -84.878
 993.8000, -77.918
 993.8100,-210.000
 993.8200, -90.742
 993.8300, -79.768
 993.8400, -90.706
 993.8500,-210.000
 993.8600, -76.401
 993.8700,-210.000
 993.8800, -83.766
 993.8900, -81.835
 993.9000,-210.000
 993.9100, -89.187
 993.9200, -77.211
 993.9300, -77.616
 993.9400, -94.283
 993.9500, -78.392
 993.9600, -79.073
 993.9700,-210.000
 993.9800, -81.408
 993.9900, -78.582
 994.0000, -84.542
 994.0100, -85.404
 994.0200, -85.230
 994.0300, -88.760
 994.0400, -77.629
 994.0500, -93.947
 994.0600, -84.272
 994.0700, -85.054
 994.0800, -82.748
 994.0900,-210.000
 994.1000,-210.000
 994.1100, -81.741
 994.1200, -77.836
 994.1300, -82.905
 994.1400, -77.921
 994.1500, -90.881
 994.1600, -89.930
 994.1700,-210.000
 994.1800, -98.381
 994.1900, -81.389
 994.2000, -77.879
 994.2100, -78.889
 994.2200, -83.684
 994.2300, -76.298
 994.2400, -84.140
 994.2500, -81.405
 994.2600,-210.000
 994.2700,-100.149
 994.2800, -77.639
 994.2900,-210.000
 994.3000, -83.190
 994.3100, -78.375
 994.3200, -84.247
 994.3300, -78.486
 994.3400, -83.410
 994.3500, -87.792
 994.3600, -80.657
 994.3700, -77.039
 994.3800, -83.583
 994.3900, -89.044
 994.4000, -78.621
 994.4100, -79.642
 994.4200, -82.430
 994.4300, -79.931
 994.4400, -85.415
 994.4500, -85.788
 994.4600, -80.319
 994.4700,-210.000
 994.4800,-210.000
 994.4900, -77.451
 994.5000, -82.820
 994.5100, -77.612
 994.5200,-210.000
 994.5300, -77.670
 994.5400, -81.199
 994.5500,-210.000
 994.5600,-210.000
 994.5700, -83.167
 994.5800, -76.885
 994.5900, -93.792
 994.6000, -80.688
 994.6100,-210.000
 994.6200, -94.415
 994.6300, -82.966
 994.6400, -80.352
 994.6500, -79.021
 994.6600, -78.959
 994.6700, -84.806
 994.6800,-210.000
 994.6900, -77.711
 994.7000,-210.000
 994.7100, -79.754
 994.7200,-210.000
 994.7300, -83.925
 994.7400, -84.269
 994.7500, -80.200
 994.7600, -94.698
 994.7700, -79.741
 994.7800,-210.000
 994.7900, -81.983
 994.8000, -80.180
 994.8100, -81.349
 994.8200, -82.302
 994.8300, -80.683
 994.8400, -82.226
 994.8500,-210.000
 994.8600, -80.061
 994.8700, -78.174
 994.8800, -78.205
 994.8900,-210.000
 994.9000, -78.625
 994.9100, -86.424
 994.9200, -81.558
 994.9300, -86.569
 994.9400, -81.283
 994.9500, -84.057
 994.9600, -81.024
 994.9700,-210.000
 994.9800, -82.825
 994.9900,-210.000
 995.0000, -79.871
 995.0100,-210.000
 995.0200, -81.744
 995.0300, -79.748
 995.0400, -83.935
 995.0500, -96.477
 995.0600, -79.163
 995.0700, -83.763
 995.0800,-210.000
 995.0900, -82.017
 995.1000, -78.071
 995.1100, -87.368
 995.1200, -82.159
 995.1300, -78.765
 995.1400, -77.819
 995.1500, -79.639
 995.1600, -79.792
 995.1700, -85.037
 995.1800,-210.000
 995.1900, -81.808
 995.2000, -80.070
 995.2100, -79.208
 995.2200, -77.201
 995.2300, -85.240
 995.2400, -78.896
 995.2500,-210.000
 995.2600, -82.510
 995.2700, -79.870
 995.2800, -77.087
 995.2900, -88.516
 995.3000,-210.000
 995.3100, -84.713
 995.3200, -79.735
 995.3300, -82.393
 995.3400, -78.151
 995.3500, -79.059
 995.3600, -77.356
 995.3700, -85.477
 995.3800, -77.762
 995.3900, -78.988
 995.4000, -82.229
 995.4100, -89.214
 995.4200, -79.437
 995.4300, -82.150
 995.4400, -80.193
 995.4500, -78.248
 995.4600, -77.226
 995.4700, -79.797
 995.4800, -78.792
 995.4900, -83.505
 995.5000, -79.265
 995.5100, -85.062
 995.5200, -80.520
 995.5300, -77.792
 995.5400, -78.365
 995.5500, -79.262
 995.5600, -78.845
 995.5700, -79.947
 995.5800, -85.428
 995.5900, -80.226
 995.6000, -85.294
 995.6100, -85.180
 995.6200, -81.916
 995.6300, -92.940
 995.6400, -81.412
 995.6500, -83.364
 995.6600, -79.996
 995.6700, -81.508
 995.6800, -79.777
 995.6900, -86.547
 995.7000,-210.000
 995.7100, -79.090
 995.7200,-210.000
 995.7300, -86.521
 995.7400, -78.549
 995.7500, -77.059
 995.7600,-210.000
 995.7700, -79.529
 995.7800, -78.523
 995.7900, -80.694
 995.8000, -81.726
 995.8100, -79.236
 995.8200, -80.022
 995.8300, -84.831
 995.8400, -79.015
 995.8500, -81.707
 995.8600, -82.191
 995.8700, -79.252
 995.8800,-210.000
 995.8900, -78.308
 995.9000, -78.423
 995.9100, -84.800
 995.9200, -82.491
 995.9300, -82.195
 995.9400, -78.333
 995.9500, -83.864
 995.9600, -81.845
 995.9700, -78.194
 995.9800, -87.937
 995.9900, -83.250
 996.0000, -77.481
 996.0100, -80.439
 996.0200, -80.621
 996.0300, -79.977
 996.0400, -80.828
 996.0500, -79.910
 996.0600, -78.169
 996.0700, -79.766
 996.0800, -78.782
 996.0900, -82.055
 996.1000, -82.014
 996.1100, -81.500
 996.1200,-210.000
 996.1300, -87.006
 996.1400, -92.912
 996.1500, -80.326
 996.1600, -76.563
 996.1700, -83.657
 996.1800, -79.348
 996.1900, -83.221
 996.2000, -82.146
 996.2100, -84.437
 996.2200, -81.351
 996.2300, -83.134
 996.2400, -80.687
 996.2500, -82.519
 996.2600, -85.255
 996.2700, -82.603
 996.2800, -80.616
 996.2900, -90.931
 996.3000, -78.792
 996.3100, -79.346
 996.3200, -79.398
 996.3300,-210.000
 996.3400, -80.127
 996.3500, -77.939
 996.3600, -82.942
 996.3700, -84.312
 996.3800, -77.794
 996.3900, -82.294
 996.4000, -87.204
 996.4100, -79.104
 996.4200, -89.541
 996.4300,-210.000
 996.4400,-210.000
 996.4500, -89.837
 996.4600, -82.262
 996.4700, -78.173
 996.4800,-102.052
 996.4900, -85.760
 996.5000, -79.655
 996.5100, -88.863
 996.5200, -79.547
 996.5300, -83.684
 996.5400, -77.959
 996.5500, -80.218
 996.5600, -79.196
 996.5700, -80.541
 996.5800, -82.101
 996.5900, -82.116
 996.6000,-210.000
 996.6100, -81.128
 996.6200,-210.000
 996.6300, -91.178
 996.6400, -77.861
 996.6500,-210.000
 996.6600, -82.979
 996.6700, -85.645
 996.6800, -78.605
 996.6900, -80.788
 996.7000, -76.944
 996.7100,-210.000
 996.7200,-210.000
 996.7300, -77.922
 996.7400,-210.000
 996.7500, -80.769
 996.7600, -78.575
 996.7700, -78.859
 996.7800, -84.749
 996.7900, -85.976
 996.8000,-210.000
 996.8100,-210.000
 996.8200, -80.470
 996.8300, -87.633
 996.8400, -81.779
 996.8500, -78.876
 996.8600, -85.070
 996.8700,-210.000
 996.8800, -81.226
 996.8900, -82.923
 996.9000, -80.798
 996.9100,-210.000
 996.9200, -80.085
 996.9300, -82.397
 996.9400, -84.982
 996.9500, -79.950
 996.9600, -81.957
 996.9700, -79.824
 996.9800,-210.000
 996.9900, -84.205
 997.0000,-210.000
 997.0100, -80.449
 997.0200, -97.220
 997.0300,-111.092
 997.0400, -78.959
 997.0500,-210.000
 997.0600, -79.980
 997.0700, -82.360
 997.0800, -80.142
 997.0900, -79.851
 997.1000,-210.000
 997.1100, -86.681
 997.1200, -78.627
 997.1300, -79.348
 997.1400, -83.919
 997.1500, -79.403
 997.1600, -83.075
 997.1700, -76.657
 997.1800, -79.442
 997.1900, -83.086
 997.2000, -79.918
 997.2100, -84.353
 997.2200,-210.000
 997.2300, -85.187
 997.2400,-210.000
 997.2500, -79.243
 997.2600, -80.253
 997.2700, -79.080
 997.2800, -83.314
 997.2900, -82.839
 997.3000, -78.502
 997.3100, -89.861
 997.3200, -79.235
 997.3300, -94.481
 997.3400, -80.317
 997.3500, -81.235
 997.3600, -79.602
 997.3700, -81.594
 997.3800, -80.538
 997.3900, -86.789
 997.4000, -80.623
 997.4100,-210.000
 997.4200,-210.000
 997.4300,-210.000
 997.4400, -87.343
 997.4500, -76.340
 997.4600, -84.235
 997.4700,-210.000
 997.4800,-210.000
 997.4900, -81.134
 997.5000,-210.000
 997.5100, -77.166
 997.5200, -81.883
 997.5300, -86.523
 997.5400, -79.706
 997.5500,-210.000
 997.5600, -81.730
 997.5700, -78.784
 997.5800, -81.791
 997.5900, -84.577
 997.6000, -79.722
 997.6100, -80.040
 997.6200, -79.401
 997.6300, -79.116
 997.6400, -81.183
 997.6500,-210.000
 997.6600, -84.223
 997.6700, -80.050
 997.6800, -78.883
 997.6900,-210.000
 997.7000, -85.790
 997.7100, -78.016
 997.7200, -81.692
 997.7300, -85.706
 997.7400, -83.289
 997.7500,-210.000
 997.7600, -78.294
 997.7700, -81.635
 997.7800, -89.242
 997.7900, -80.839
 997.8000,-210.000
 997.8100, -77.583
 997.8200, -79.749
 997.8300, -77.086
 997.8400, -79.853
 997.8500, -77.949
 997.8600,-210.000
 997.8700, -83.072
 997.8800, -81.650
 997.8900, -89.195
 997.9000, -77.135
 997.9100, -79.391
 997.9200,-210.000
 997.9300, -78.074
 997.9400, -83.521
 997.9500, -78.857
 997.9600, -90.989
 997.9700, -79.593
 997.9800, -79.247
 997.9900,-210.000
 998.0000, -79.439
 998.0100, -78.795
 998.0200, -77.568
 998.0300, -79.780
 998.0400,-210.000
 998.0500, -78.005
 998.0600, -82.018
 998.0700, -90.710
 998.0800,-210.000
 998.0900, -78.140
 998.1000, -76.446
 998.1100, -80.183
 998.1200,-210.000
 998.1300, -78.447
 998.1400, -82.857
 998.1500, -80.974
 998.1600, -88.874
 998.1700,-210.000
 998.1800, -79.945
 998.1900, -77.174
 998.2000, -90.775
 998.2100, -82.171
 998.2200, -77.111
 998.2300, -79.009
 998.2400, -82.386
 998.2500, -80.465
 998.2600, -79.581
 998.2700,-210.000
 998.2800, -87.479
 998.2900, -80.201
 998.3000,-210.000
 998.3100, -84.652
 998.3200, -81.252
 998.3300,-210.000
 998.3400, -81.589
 998.3500,-210.000
 998.3600, -87.708
 998.3700, -81.805
 998.3800, -80.478
 998.3900, -80.498
 998.4000, -79.256
 998.4100,-210.000
 998.4200,-210.000
 998.4300, -81.916
 998.4400, -77.580
 998.4500, -84.686
 998.4600, -80.693
 998.4700, -77.487
 998.4800, -84.252
 998.4900, -80.296
 998.5000, -88.907
 998.5100,-210.000
 998.5200,-210.000
 998.5300, -76.540
 998.5400, -80.593
 998.5500,-210.000
 998.5600, -78.953
 998.5700, -77.007
 998.5800,-210.000
 998.5900,-210.000
 998.6000, -81.096
 998.6100, -78.532
 998.6200,-210.000
 998.6300, -78.661
 998.6400, -86.926
 998.6500, -86.266
 998.6600, -86.192
 998.6700, -79.216
 998.6800, -78.219
 998.6900, -77.241
 998.7000,-210.000
 998.7100, -84.530
 998.7200, -85.756
 998.7300, -78.861
 998.7400, -76.367
 998.7500, -85.645
 998.7600, -80.220
 998.7700, -81.764
 998.7800,-210.000
 998.7900, -88.026
 998.8000, -84.414
 998.8100, -76.987
 998.8200, -77.396
 998.8300, -79.486
 998.8400, -78.048
 998.8500, -81.324
 998.8600, -77.869
 998.8700, -81.314
 998.8800,-210.000
 998.8900,-210.000
 998.9000, -79.415
 998.9100, -80.628
 998.9200, -82.715
 998.9300, -77.772
 998.9400, -81.505
 998.9500, -79.179
 998.9600, -77.605
 998.9700, -78.323
 998.9800, -83.108
 998.9900, -78.130
 999.0000,-210.000
 999.0100, -84.416
 999.0200, -79.195
 999.0300, -82.772
 999.0400, -77.130
 999.0500, -84.258
 999.0600, -78.530
 999.0700, -84.362
 999.0800,-210.000
 999.0900, -78.697
 999.1000, -81.030
 999.1100, -77.071
 999.1200, -79.072
 999.1300, -96.446
 999.1400, -77.803
 999.1500, -79.154
 999.1600, -81.838
 999.1700,-210.000
 999.1800, -79.126
 999.1900, -77.713
 999.2000, -84.939
 999.2100,-210.000
 999.2200, -85.231
 999.2300, -79.075
 999.2400, -80.261
 999.2500, -80.073
 999.2600,-210.000
 999.2700, -78.885
 999.2800, -80.664
 999.2900,-210.000
 999.3000, -81.693
 999.3100, -85.285
 999.3200,-210.000
 999.3300, -80.488
 999.3400, -77.940
 999.3500,-210.000
 999.3600,-210.000
 999.3700, -83.013
 999.3800, -83.389
 999.3900, -82.156
 999.4000, -78.415
 999.4100, -78.340
 999.4200, -79.943
 999.4300, -78.157
 999.4400, -82.490
 999.4500, -85.537
 999.4600, -81.207
 999.4700, -77.944
 999.4800, -80.424
 999.4900, -78.968
 999.5000, -80.494
 999.5100, -81.737
 999.5200, -81.162
 999.5300, -82.175
 999.5400,-210.000
 999.5500,-210.000
 999.5600,-210.000
 999.5700,-210.000
 999.5800,-210.000
 999.5900,-210.000
 999.6000, -79.654
 999.6100, -80.298
 999.6200, -80.123
 999.6300, -81.051
 999.6400, -82.156
 999.6500, -91.920
 999.6600, -83.878
 999.6700, -79.599
 999.6800, -82.243
 999.6900,-210.000
 999.7000,-210.000
 999.7100, -86.777
 999.7200, -82.148
 999.7300, -79.535
 999.7400, -79.817
 999.7500, -81.204
 999.7600,-210.000
 999.7700, -88.596
 999.7800, -78.648
 999.7900, -84.489
 999.8000, -80.438
 999.8100, -80.627
 999.8200,-210.000
 999.8300,-210.000
 999.8400, -77.042
 999.8500, -83.384
 999.8600, -88.866
 999.8700,-210.000
 999.8800, -79.159
 999.8900, -76.598
 999.9000, -78.473
 999.9100, -87.480
 999.9200, -76.252
 999.9300, -80.569
 999.9400,-107.551
 999.9500, -86.796
 999.9600, -79.262
 999.9700, -94.168
 999.9800, -81.752
 999.9900,-210.000
1000.0000,-210.000
1000.0100, -77.832
1000.0200, -79.107
1000.0300, -85.257
1000.0400, -81.715
1000.0500, -90.948
1000.0600, -87.835
1000.0700, -89.283
1000.0800,-210.000
1000.0900, -98.898
1000.1000, -80.920
1000.1100, -82.881
1000.1200,-210.000
1000.1300,-210.000
1000.1400, -86.596
1000.1500, -80.197
1000.1600, -82.896
1000.1700, -93.559
1000.1800, -87.255
1000.1900, -80.712
1000.2000, -80.114
1000.2100,-210.000
1000.2200, -81.258
1000.2300, -80.636
1000.2400, -82.071
1000.2500, -79.613
1000.2600, -84.231
1000.2700, -80.027
1000.2800, -79.895
1000.2900, -84.532
1000.3000, -78.262
1000.3100, -98.538
1000.3200, -85.449
1000.3300, -77.767
1000.3400,-210.000
1000.3500, -83.824
1000.3600,-210.000
1000.3700, -86.123
1000.3800, -78.236
1000.3900, -78.079
1000.4000,-210.000
1000.4100, -95.605
1000.4200, -80.379
1000.4300,-210.000
1000.4400, -80.637
1000.4500, -77.864
1000.4600, -77.784
1000.4700, -78.633
1000.4800, -82.430
1000.4900, -79.455
1000.5000, -80.363
1000.5100, -82.832
1000.5200, -79.998
1000.5300, -82.154
1000.5400, -80.274
1000.5500,-210.000
1000.5600,-210.000
1000.5700, -82.973
1000.5800, -77.495
1000.5900, -79.213
1000.6000, -87.297
1000.6100, -83.775
1000.6200, -79.193
1000.6300, -79.853
1000.6400, -90.682
1000.6500, -80.308
1000.6600, -77.636
1000.6700, -84.067
1000.6800, -83.640
1000.6900, -84.412
1000.7000, -84.463
1000.7100,-210.000
1000.7200,-210.000
1000.7300, -81.357
1000.7400,-210.000
1000.7500, -78.887
1000.7600, -82.392
1000.7700, -85.963
1000.7800, -84.959
1000.7900, -79.530
1000.8000, -82.706
1000.8100,-210.000
1000.8200, -79.066
1000.8300, -78.233
1000.8400, -81.665
1000.8500, -80.239
1000.8600,-210.000
1000.8700, -79.794
1000.8800, -76.621
1000.8900, -80.174
1000.9000, -82.275
1000.9100, -83.862
1000.9200, -79.370
1000.9300, -77.884
1000.9400, -86.260
1000.9500, -78.931
1000.9600, -76.238
1000.9700,-210.000
1000.9800, -78.896
1000.9900, -89.334
1001.0000, -81.666
