73CSV  	
// AQ6373B OPTICAL SPECTRUM ANALYZER //                 
35
"CTRWL", 976.000000
"SPAN",  50.000000
"START WL", 951.000000
"STOP WL",1001.000000
"WLFREQ", 0
"REFL",-34.5
"LSCL",10.0
"RESLN",0.050
"AVG",   1
"SMPLAUTO",      1
"SMPL",       5001
"SMPLINTVL",0.0100
"HIGH1"
"MEAS"
"LSUNT",0
"NMSKH","OFF"
"RESCOR",0
"SMOOTH",0
"MEASWL",0
"SWPSPD",0
"CHGPT",          0
"RESCAL0_0",       9389
"RESCAL0_1",        538
"RESCAL0_2",    -340913
"RESCAL1_0",       9652
"RESCAL1_1",         64
"RESCAL1_2",     -41039
"CORESIZE", 0







"[TRACE DATA]"
 951.0000, -84.245
 951.0100, -80.545
 951.0200,-210.000
 951.0300, -99.323
 951.0400,-210.000
 951.0500, -77.232
 951.0600, -81.053
 951.0700, -78.820
 951.0800, -80.280
 951.0900, -80.724
 951.1000, -77.176
 951.1100, -81.755
 951.1200, -78.603
 951.1300, -81.958
 951.1400, -78.338
 951.1500, -84.802
 951.1600, -79.430
 951.1700, -78.495
 951.1800, -84.976
 951.1900, -79.860
 951.2000, -89.935
 951.2100,-210.000
 951.2200, -78.271
 951.2300, -81.493
 951.2400, -78.065
 951.2500,-210.000
 951.2600, -84.539
 951.2700, -77.461
 951.2800, -87.736
 951.2900, -79.630
 951.3000, -75.750
 951.3100, -78.544
 951.3200, -79.912
 951.3300, -78.617
 951.3400, -77.378
 951.3500, -79.116
 951.3600, -83.720
 951.3700, -76.344
 951.3800, -81.514
 951.3900, -86.668
 951.4000, -82.386
 951.4100, -77.928
 951.4200, -76.450
 951.4300, -76.467
 951.4400, -79.196
 951.4500,-210.000
 951.4600, -79.275
 951.4700, -79.121
 951.4800, -76.835
 951.4900, -83.153
 951.5000, -78.594
 951.5100, -82.712
 951.5200, -80.227
 951.5300, -80.788
 951.5400, -78.267
 951.5500, -82.200
 951.5600, -76.556
 951.5700, -80.670
 951.5800, -77.031
 951.5900,-210.000
 951.6000, -84.632
 951.6100, -78.102
 951.6200, -79.097
 951.6300, -79.498
 951.6400, -79.950
 951.6500, -81.860
 951.6600, -78.059
 951.6700,-210.000
 951.6800, -79.370
 951.6900, -84.452
 951.7000,-210.000
 951.7100,-210.000
 951.7200, -83.195
 951.7300, -80.657
 951.7400, -81.207
 951.7500, -76.442
 951.7600, -80.935
 951.7700, -81.672
 951.7800, -77.779
 951.7900, -79.910
 951.8000, -80.512
 951.8100, -84.265
 951.8200, -80.531
 951.8300, -77.442
 951.8400,-210.000
 951.8500, -78.202
 951.8600, -77.979
 951.8700, -78.473
 951.8800, -79.363
 951.8900, -81.211
 951.9000, -78.475
 951.9100, -81.677
 951.9200, -79.510
 951.9300, -80.421
 951.9400, -82.302
 951.9500, -78.818
 951.9600, -76.838
 951.9700, -77.880
 951.9800,-210.000
 951.9900, -75.711
 952.0000, -78.079
 952.0100, -78.538
 952.0200, -79.647
 952.0300, -79.586
 952.0400, -76.861
 952.0500, -85.918
 952.0600, -77.543
 952.0700, -78.367
 952.0800, -84.306
 952.0900, -82.798
 952.1000, -77.183
 952.1100, -78.645
 952.1200, -75.738
 952.1300, -77.030
 952.1400, -79.566
 952.1500, -79.485
 952.1600, -80.075
 952.1700, -75.703
 952.1800, -78.899
 952.1900, -78.395
 952.2000, -78.345
 952.2100, -76.823
 952.2200, -76.557
 952.2300, -80.210
 952.2400, -91.039
 952.2500, -76.774
 952.2600, -87.130
 952.2700, -85.651
 952.2800, -76.297
 952.2900, -78.379
 952.3000,-210.000
 952.3100, -80.217
 952.3200, -77.945
 952.3300, -81.354
 952.3400, -79.081
 952.3500, -77.838
 952.3600, -78.763
 952.3700,-210.000
 952.3800, -78.527
 952.3900, -75.618
 952.4000, -76.103
 952.4100, -80.430
 952.4200, -82.185
 952.4300,-210.000
 952.4400, -82.017
 952.4500, -78.810
 952.4600, -81.352
 952.4700, -76.126
 952.4800, -77.684
 952.4900,-210.000
 952.5000, -79.881
 952.5100, -78.472
 952.5200, -79.949
 952.5300, -79.510
 952.5400, -78.938
 952.5500, -79.623
 952.5600, -80.316
 952.5700, -81.465
 952.5800, -84.013
 952.5900, -77.927
 952.6000, -82.213
 952.6100, -78.884
 952.6200, -78.005
 952.6300, -77.780
 952.6400, -77.155
 952.6500, -79.067
 952.6600, -95.550
 952.6700, -79.657
 952.6800, -83.588
 952.6900, -77.465
 952.7000, -77.347
 952.7100, -80.382
 952.7200, -77.443
 952.7300, -83.621
 952.7400, -80.781
 952.7500, -78.666
 952.7600, -86.286
 952.7700,-210.000
 952.7800, -78.887
 952.7900, -78.975
 952.8000, -82.822
 952.8100,-210.000
 952.8200, -76.801
 952.8300, -78.344
 952.8400, -75.485
 952.8500, -78.021
 952.8600, -78.582
 952.8700, -78.099
 952.8800, -76.150
 952.8900, -87.834
 952.9000, -79.870
 952.9100, -80.799
 952.9200, -79.583
 952.9300, -76.178
 952.9400, -80.021
 952.9500, -82.873
 952.9600, -76.658
 952.9700, -79.021
 952.9800, -76.317
 952.9900, -77.935
 953.0000, -79.567
 953.0100, -85.397
 953.0200, -79.769
 953.0300, -80.002
 953.0400, -76.157
 953.0500, -76.827
 953.0600, -79.390
 953.0700, -85.125
 953.0800, -80.023
 953.0900, -78.458
 953.1000, -83.319
 953.1100, -77.182
 953.1200, -81.430
 953.1300, -78.907
 953.1400, -87.660
 953.1500, -78.859
 953.1600, -76.504
 953.1700,-210.000
 953.1800, -81.801
 953.1900,-210.000
 953.2000, -77.057
 953.2100, -79.726
 953.2200, -80.919
 953.2300, -81.118
 953.2400,-210.000
 953.2500, -80.387
 953.2600, -80.152
 953.2700, -79.908
 953.2800,-210.000
 953.2900, -96.102
 953.3000, -77.396
 953.3100, -79.659
 953.3200,-210.000
 953.3300, -76.274
 953.3400, -94.436
 953.3500, -76.561
 953.3600, -79.266
 953.3700, -86.169
 953.3800, -78.344
 953.3900,-210.000
 953.4000, -77.629
 953.4100, -79.456
 953.4200, -79.514
 953.4300,-210.000
 953.4400, -94.826
 953.4500, -78.735
 953.4600, -77.706
 953.4700, -80.678
 953.4800, -80.943
 953.4900, -80.910
 953.5000, -82.772
 953.5100, -79.863
 953.5200, -82.946
 953.5300, -87.524
 953.5400, -81.819
 953.5500, -80.207
 953.5600, -78.376
 953.5700, -77.318
 953.5800, -78.147
 953.5900, -78.674
 953.6000, -79.611
 953.6100, -77.526
 953.6200, -80.591
 953.6300, -79.712
 953.6400, -77.626
 953.6500, -81.881
 953.6600, -80.019
 953.6700,-210.000
 953.6800, -79.129
 953.6900, -74.450
 953.7000, -82.791
 953.7100, -81.583
 953.7200, -77.096
 953.7300, -77.060
 953.7400, -78.381
 953.7500, -77.108
 953.7600, -79.785
 953.7700, -89.833
 953.7800, -77.886
 953.7900, -77.312
 953.8000, -79.411
 953.8100, -79.911
 953.8200, -78.620
 953.8300, -80.955
 953.8400, -83.144
 953.8500, -78.512
 953.8600, -78.800
 953.8700,-210.000
 953.8800, -77.598
 953.8900, -77.202
 953.9000, -85.871
 953.9100, -79.030
 953.9200, -75.820
 953.9300, -77.485
 953.9400, -80.965
 953.9500, -77.573
 953.9600, -77.323
 953.9700, -76.293
 953.9800, -77.874
 953.9900, -79.419
 954.0000, -77.131
 954.0100, -76.791
 954.0200, -78.203
 954.0300, -77.217
 954.0400, -76.145
 954.0500, -77.362
 954.0600, -78.711
 954.0700, -77.169
 954.0800, -86.011
 954.0900, -81.731
 954.1000, -77.448
 954.1100, -76.615
 954.1200, -77.961
 954.1300, -76.746
 954.1400, -77.306
 954.1500, -87.376
 954.1600, -78.269
 954.1700, -83.757
 954.1800, -79.419
 954.1900, -80.694
 954.2000, -90.341
 954.2100, -82.122
 954.2200, -77.724
 954.2300, -76.668
 954.2400, -79.034
 954.2500, -78.895
 954.2600, -81.348
 954.2700, -80.665
 954.2800, -76.775
 954.2900, -96.451
 954.3000, -82.216
 954.3100,-210.000
 954.3200, -75.980
 954.3300, -76.192
 954.3400, -77.204
 954.3500, -79.361
 954.3600, -81.062
 954.3700, -78.642
 954.3800, -77.866
 954.3900, -78.051
 954.4000, -78.080
 954.4100, -77.772
 954.4200, -77.839
 954.4300, -77.962
 954.4400, -78.826
 954.4500, -79.160
 954.4600, -79.245
 954.4700, -77.340
 954.4800, -77.762
 954.4900, -76.708
 954.5000, -77.963
 954.5100, -81.882
 954.5200, -76.145
 954.5300, -77.346
 954.5400, -77.076
 954.5500, -80.718
 954.5600, -85.009
 954.5700, -77.008
 954.5800, -77.420
 954.5900, -76.496
 954.6000, -78.858
 954.6100, -77.928
 954.6200, -81.745
 954.6300, -78.112
 954.6400, -80.995
 954.6500, -77.702
 954.6600, -77.193
 954.6700, -76.315
 954.6800, -79.446
 954.6900, -80.357
 954.7000, -76.632
 954.7100, -78.483
 954.7200, -77.945
 954.7300, -82.118
 954.7400, -82.500
 954.7500, -79.391
 954.7600, -78.153
 954.7700, -80.156
 954.7800, -79.196
 954.7900, -79.442
 954.8000, -80.373
 954.8100, -80.165
 954.8200, -77.540
 954.8300, -77.911
 954.8400, -84.737
 954.8500,-210.000
 954.8600, -79.520
 954.8700, -77.499
 954.8800, -80.163
 954.8900, -79.734
 954.9000, -77.006
 954.9100, -78.907
 954.9200, -78.118
 954.9300, -75.917
 954.9400, -83.594
 954.9500, -80.116
 954.9600, -76.039
 954.9700, -80.494
 954.9800, -76.597
 954.9900, -78.073
 955.0000, -78.117
 955.0100, -78.682
 955.0200, -96.295
 955.0300, -81.658
 955.0400, -77.839
 955.0500, -75.353
 955.0600, -76.866
 955.0700, -78.743
 955.0800, -75.224
 955.0900, -80.599
 955.1000, -76.381
 955.1100, -80.502
 955.1200, -84.925
 955.1300, -78.760
 955.1400, -77.260
 955.1500, -76.081
 955.1600, -83.369
 955.1700, -78.029
 955.1800, -77.897
 955.1900, -77.941
 955.2000, -76.924
 955.2100, -94.350
 955.2200, -79.159
 955.2300, -78.792
 955.2400, -80.750
 955.2500, -79.687
 955.2600, -87.939
 955.2700, -79.455
 955.2800, -79.547
 955.2900, -77.939
 955.3000, -76.614
 955.3100, -79.725
 955.3200, -78.393
 955.3300,-210.000
 955.3400, -80.007
 955.3500, -74.880
 955.3600, -75.957
 955.3700, -77.831
 955.3800, -78.799
 955.3900, -79.008
 955.4000,-210.000
 955.4100, -77.396
 955.4200, -81.793
 955.4300, -78.674
 955.4400, -79.917
 955.4500, -77.985
 955.4600, -78.626
 955.4700, -79.146
 955.4800, -76.420
 955.4900, -82.332
 955.5000, -81.920
 955.5100, -76.274
 955.5200, -78.377
 955.5300, -77.452
 955.5400, -77.362
 955.5500, -76.933
 955.5600, -77.347
 955.5700, -79.178
 955.5800, -77.994
 955.5900, -79.440
 955.6000, -79.059
 955.6100, -77.158
 955.6200, -78.964
 955.6300, -76.495
 955.6400, -78.465
 955.6500, -79.030
 955.6600, -89.005
 955.6700, -78.358
 955.6800, -78.812
 955.6900, -79.489
 955.7000, -75.252
 955.7100, -78.685
 955.7200, -78.350
 955.7300, -75.022
 955.7400, -80.526
 955.7500, -80.255
 955.7600, -75.707
 955.7700, -80.525
 955.7800, -79.301
 955.7900, -78.683
 955.8000, -74.971
 955.8100, -80.227
 955.8200, -78.531
 955.8300, -80.216
 955.8400, -78.695
 955.8500, -78.041
 955.8600, -76.165
 955.8700, -78.181
 955.8800, -75.798
 955.8900, -76.108
 955.9000, -76.104
 955.9100, -79.840
 955.9200, -78.910
 955.9300, -79.779
 955.9400, -78.688
 955.9500, -78.590
 955.9600, -79.911
 955.9700, -77.636
 955.9800, -78.354
 955.9900, -80.100
 956.0000, -83.701
 956.0100, -80.044
 956.0200, -76.708
 956.0300, -77.915
 956.0400, -80.323
 956.0500, -76.456
 956.0600, -84.705
 956.0700, -75.194
 956.0800, -78.166
 956.0900, -84.324
 956.1000, -76.493
 956.1100, -78.150
 956.1200, -77.249
 956.1300, -76.242
 956.1400, -76.383
 956.1500, -81.806
 956.1600, -78.117
 956.1700, -76.786
 956.1800, -76.757
 956.1900, -78.167
 956.2000, -78.002
 956.2100, -79.085
 956.2200, -80.177
 956.2300, -78.069
 956.2400, -77.357
 956.2500, -77.422
 956.2600, -75.304
 956.2700, -75.857
 956.2800, -77.535
 956.2900, -81.144
 956.3000, -78.225
 956.3100, -76.234
 956.3200, -76.396
 956.3300, -82.300
 956.3400, -78.925
 956.3500, -76.483
 956.3600, -83.794
 956.3700, -76.064
 956.3800, -75.280
 956.3900, -79.095
 956.4000, -81.091
 956.4100, -76.910
 956.4200, -77.952
 956.4300, -77.031
 956.4400, -82.237
 956.4500, -78.504
 956.4600, -76.867
 956.4700, -77.136
 956.4800, -78.528
 956.4900, -79.560
 956.5000, -75.398
 956.5100, -78.361
 956.5200, -88.170
 956.5300, -76.847
 956.5400, -80.128
 956.5500, -79.576
 956.5600, -76.904
 956.5700, -76.183
 956.5800, -77.348
 956.5900, -77.649
 956.6000, -76.202
 956.6100, -88.736
 956.6200, -79.799
 956.6300, -79.603
 956.6400, -76.197
 956.6500, -75.586
 956.6600, -77.959
 956.6700, -78.684
 956.6800, -75.866
 956.6900, -79.912
 956.7000, -75.510
 956.7100, -77.450
 956.7200, -80.042
 956.7300, -78.111
 956.7400, -78.922
 956.7500, -81.291
 956.7600, -85.798
 956.7700, -77.587
 956.7800, -80.578
 956.7900, -76.688
 956.8000, -79.542
 956.8100, -77.325
 956.8200, -77.055
 956.8300, -76.152
 956.8400, -78.097
 956.8500, -80.505
 956.8600, -77.150
 956.8700, -77.275
 956.8800, -76.439
 956.8900, -76.172
 956.9000, -77.042
 956.9100, -76.467
 956.9200, -78.219
 956.9300, -79.290
 956.9400, -80.002
 956.9500, -80.577
 956.9600, -73.771
 956.9700, -76.396
 956.9800, -75.055
 956.9900, -75.382
 957.0000, -78.967
 957.0100, -78.493
 957.0200, -74.540
 957.0300, -75.888
 957.0400, -77.402
 957.0500, -78.950
 957.0600, -77.153
 957.0700, -74.253
 957.0800, -77.030
 957.0900, -77.084
 957.1000, -77.964
 957.1100, -78.419
 957.1200, -76.240
 957.1300, -77.083
 957.1400, -77.727
 957.1500, -77.172
 957.1600, -76.861
 957.1700, -75.825
 957.1800, -78.787
 957.1900, -78.997
 957.2000, -80.030
 957.2100, -76.214
 957.2200, -75.383
 957.2300, -76.049
 957.2400, -78.274
 957.2500, -75.959
 957.2600, -79.164
 957.2700, -75.175
 957.2800, -75.020
 957.2900, -77.438
 957.3000, -76.443
 957.3100, -76.658
 957.3200, -78.708
 957.3300, -75.074
 957.3400, -75.314
 957.3500, -78.886
 957.3600, -77.724
 957.3700, -78.725
 957.3800, -77.076
 957.3900, -75.821
 957.4000, -77.820
 957.4100, -79.912
 957.4200, -77.873
 957.4300, -77.161
 957.4400, -75.765
 957.4500, -76.828
 957.4600, -74.890
 957.4700, -75.197
 957.4800, -78.295
 957.4900, -79.308
 957.5000, -77.833
 957.5100, -80.437
 957.5200, -77.448
 957.5300, -76.602
 957.5400, -77.149
 957.5500, -76.367
 957.5600, -81.878
 957.5700, -75.519
 957.5800, -76.714
 957.5900, -77.617
 957.6000, -75.205
 957.6100, -75.424
 957.6200, -74.436
 957.6300, -79.560
 957.6400, -78.112
 957.6500, -76.238
 957.6600, -77.615
 957.6700, -76.718
 957.6800, -75.245
 957.6900, -78.493
 957.7000, -77.785
 957.7100, -75.079
 957.7200, -76.077
 957.7300, -77.425
 957.7400, -78.998
 957.7500, -75.034
 957.7600, -75.404
 957.7700, -74.674
 957.7800, -77.735
 957.7900, -79.197
 957.8000, -85.271
 957.8100, -77.296
 957.8200, -77.225
 957.8300, -78.166
 957.8400, -80.139
 957.8500, -76.799
 957.8600, -74.755
 957.8700, -76.332
 957.8800, -75.185
 957.8900, -76.011
 957.9000, -74.644
 957.9100, -78.374
 957.9200, -76.713
 957.9300, -74.919
 957.9400, -74.416
 957.9500, -74.369
 957.9600, -74.428
 957.9700, -77.024
 957.9800, -75.266
 957.9900, -76.103
 958.0000, -77.467
 958.0100, -78.713
 958.0200, -78.324
 958.0300, -75.884
 958.0400, -75.009
 958.0500, -78.659
 958.0600, -77.734
 958.0700, -74.139
 958.0800, -76.454
 958.0900, -74.957
 958.1000, -74.950
 958.1100, -76.155
 958.1200, -76.593
 958.1300, -75.516
 958.1400, -75.319
 958.1500, -76.705
 958.1600, -74.386
 958.1700, -76.684
 958.1800, -76.999
 958.1900, -76.428
 958.2000, -78.996
 958.2100, -77.285
 958.2200, -76.980
 958.2300, -75.259
 958.2400, -77.529
 958.2500, -76.527
 958.2600, -75.373
 958.2700, -75.792
 958.2800, -78.288
 958.2900, -77.223
 958.3000, -74.678
 958.3100, -74.951
 958.3200, -80.040
 958.3300, -74.367
 958.3400, -76.809
 958.3500, -74.195
 958.3600, -75.803
 958.3700, -75.161
 958.3800, -77.906
 958.3900, -74.926
 958.4000, -73.903
 958.4100, -76.524
 958.4200, -77.339
 958.4300, -75.334
 958.4400, -74.527
 958.4500, -76.601
 958.4600, -80.808
 958.4700, -75.515
 958.4800, -78.468
 958.4900, -77.472
 958.5000, -77.878
 958.5100, -76.000
 958.5200, -75.707
 958.5300, -77.481
 958.5400, -75.861
 958.5500, -76.633
 958.5600, -75.216
 958.5700, -75.330
 958.5800, -75.397
 958.5900, -73.988
 958.6000, -75.410
 958.6100, -76.662
 958.6200, -74.978
 958.6300, -75.409
 958.6400, -75.460
 958.6500, -75.269
 958.6600, -76.051
 958.6700, -79.623
 958.6800, -74.766
 958.6900, -76.067
 958.7000, -73.496
 958.7100, -77.383
 958.7200, -76.285
 958.7300, -76.150
 958.7400, -75.671
 958.7500, -75.696
 958.7600, -76.867
 958.7700, -75.003
 958.7800, -75.886
 958.7900, -80.334
 958.8000, -74.587
 958.8100, -75.644
 958.8200, -74.877
 958.8300, -74.033
 958.8400, -74.056
 958.8500, -74.888
 958.8600, -74.912
 958.8700, -75.679
 958.8800, -74.593
 958.8900, -76.466
 958.9000, -74.709
 958.9100, -76.837
 958.9200, -76.345
 958.9300, -78.080
 958.9400, -75.273
 958.9500, -74.399
 958.9600, -75.160
 958.9700, -76.847
 958.9800, -75.547
 958.9900, -77.094
 959.0000, -76.375
 959.0100, -74.827
 959.0200, -77.871
 959.0300, -74.426
 959.0400, -75.910
 959.0500, -75.603
 959.0600, -75.393
 959.0700, -76.039
 959.0800, -75.738
 959.0900, -74.133
 959.1000, -81.137
 959.1100, -77.564
 959.1200, -74.080
 959.1300, -74.130
 959.1400, -73.952
 959.1500, -74.552
 959.1600, -73.788
 959.1700, -75.266
 959.1800, -76.829
 959.1900, -77.348
 959.2000, -76.243
 959.2100, -76.459
 959.2200, -74.805
 959.2300, -74.631
 959.2400, -74.868
 959.2500, -76.355
 959.2600, -74.412
 959.2700, -77.227
 959.2800, -75.606
 959.2900, -75.425
 959.3000, -75.760
 959.3100, -75.413
 959.3200, -74.420
 959.3300, -75.208
 959.3400, -74.838
 959.3500, -74.391
 959.3600, -74.723
 959.3700, -79.752
 959.3800, -78.807
 959.3900, -75.468
 959.4000, -73.716
 959.4100, -76.095
 959.4200, -74.893
 959.4300, -75.833
 959.4400, -75.516
 959.4500, -75.852
 959.4600, -74.842
 959.4700, -76.260
 959.4800, -76.305
 959.4900, -74.611
 959.5000, -74.148
 959.5100, -73.715
 959.5200, -74.179
 959.5300, -74.613
 959.5400, -74.908
 959.5500, -76.282
 959.5600, -74.952
 959.5700, -76.081
 959.5800, -75.011
 959.5900, -74.787
 959.6000, -77.192
 959.6100, -75.456
 959.6200, -75.153
 959.6300, -73.970
 959.6400, -75.227
 959.6500, -75.208
 959.6600, -75.398
 959.6700, -74.707
 959.6800, -74.657
 959.6900, -75.374
 959.7000, -74.499
 959.7100, -73.885
 959.7200, -73.413
 959.7300, -74.506
 959.7400, -74.094
 959.7500, -75.819
 959.7600, -75.062
 959.7700, -75.317
 959.7800, -75.171
 959.7900, -76.619
 959.8000, -76.140
 959.8100, -74.853
 959.8200, -75.289
 959.8300, -75.991
 959.8400, -75.087
 959.8500, -74.219
 959.8600, -74.717
 959.8700, -74.836
 959.8800, -74.659
 959.8900, -74.282
 959.9000, -76.784
 959.9100, -75.100
 959.9200, -74.738
 959.9300, -74.489
 959.9400, -74.759
 959.9500, -73.762
 959.9600, -77.507
 959.9700, -73.921
 959.9800, -75.614
 959.9900, -72.959
 960.0000, -73.508
 960.0100, -75.417
 960.0200, -75.239
 960.0300, -75.343
 960.0400, -74.751
 960.0500, -75.774
 960.0600, -74.176
 960.0700, -75.823
 960.0800, -74.835
 960.0900, -76.850
 960.1000, -75.025
 960.1100, -73.138
 960.1200, -73.481
 960.1300, -73.405
 960.1400, -74.837
 960.1500, -74.837
 960.1600, -73.512
 960.1700, -74.703
 960.1800, -73.933
 960.1900, -73.652
 960.2000, -74.918
 960.2100, -73.935
 960.2200, -74.706
 960.2300, -73.823
 960.2400, -73.389
 960.2500, -75.038
 960.2600, -73.796
 960.2700, -74.687
 960.2800, -74.780
 960.2900, -74.988
 960.3000, -74.974
 960.3100, -75.076
 960.3200, -74.155
 960.3300, -72.696
 960.3400, -73.592
 960.3500, -74.339
 960.3600, -75.621
 960.3700, -74.335
 960.3800, -74.314
 960.3900, -74.761
 960.4000, -73.380
 960.4100, -74.239
 960.4200, -74.470
 960.4300, -75.309
 960.4400, -74.887
 960.4500, -74.194
 960.4600, -73.607
 960.4700, -74.149
 960.4800, -74.555
 960.4900, -73.952
 960.5000, -73.137
 960.5100, -74.465
 960.5200, -75.091
 960.5300, -74.985
 960.5400, -74.710
 960.5500, -74.840
 960.5600, -74.848
 960.5700, -73.767
 960.5800, -73.646
 960.5900, -74.078
 960.6000, -73.342
 960.6100, -73.824
 960.6200, -73.510
 960.6300, -74.867
 960.6400, -73.406
 960.6500, -73.855
 960.6600, -74.241
 960.6700, -73.490
 960.6800, -72.346
 960.6900, -73.009
 960.7000, -73.287
 960.7100, -75.175
 960.7200, -73.910
 960.7300, -73.995
 960.7400, -73.629
 960.7500, -73.391
 960.7600, -74.718
 960.7700, -73.325
 960.7800, -73.013
 960.7900, -73.391
 960.8000, -73.942
 960.8100, -73.725
 960.8200, -73.346
 960.8300, -73.034
 960.8400, -73.721
 960.8500, -74.054
 960.8600, -73.749
 960.8700, -72.411
 960.8800, -74.806
 960.8900, -73.234
 960.9000, -73.264
 960.9100, -73.647
 960.9200, -74.120
 960.9300, -73.026
 960.9400, -73.749
 960.9500, -72.832
 960.9600, -72.625
 960.9700, -74.014
 960.9800, -73.683
 960.9900, -72.873
 961.0000, -73.986
 961.0100, -73.936
 961.0200, -75.332
 961.0300, -72.096
 961.0400, -72.731
 961.0500, -74.126
 961.0600, -72.720
 961.0700, -72.940
 961.0800, -73.195
 961.0900, -73.882
 961.1000, -73.241
 961.1100, -73.775
 961.1200, -73.405
 961.1300, -73.308
 961.1400, -73.883
 961.1500, -72.531
 961.1600, -72.919
 961.1700, -74.754
 961.1800, -72.355
 961.1900, -73.544
 961.2000, -72.384
 961.2100, -71.931
 961.2200, -73.358
 961.2300, -73.633
 961.2400, -73.183
 961.2500, -72.646
 961.2600, -73.592
 961.2700, -73.663
 961.2800, -73.232
 961.2900, -74.162
 961.3000, -73.175
 961.3100, -72.523
 961.3200, -73.805
 961.3300, -73.009
 961.3400, -72.977
 961.3500, -73.355
 961.3600, -72.863
 961.3700, -72.231
 961.3800, -72.777
 961.3900, -72.586
 961.4000, -72.886
 961.4100, -72.179
 961.4200, -73.045
 961.4300, -72.078
 961.4400, -73.312
 961.4500, -73.025
 961.4600, -72.519
 961.4700, -72.826
 961.4800, -72.476
 961.4900, -72.879
 961.5000, -71.882
 961.5100, -72.335
 961.5200, -71.900
 961.5300, -72.139
 961.5400, -72.466
 961.5500, -71.988
 961.5600, -71.616
 961.5700, -72.004
 961.5800, -72.689
 961.5900, -72.392
 961.6000, -72.952
 961.6100, -71.572
 961.6200, -73.672
 961.6300, -72.616
 961.6400, -72.026
 961.6500, -72.717
 961.6600, -71.828
 961.6700, -72.059
 961.6800, -72.079
 961.6900, -72.554
 961.7000, -72.794
 961.7100, -71.745
 961.7200, -72.461
 961.7300, -71.813
 961.7400, -71.755
 961.7500, -71.615
 961.7600, -72.214
 961.7700, -72.591
 961.7800, -72.371
 961.7900, -71.694
 961.8000, -72.632
 961.8100, -72.811
 961.8200, -72.753
 961.8300, -71.595
 961.8400, -71.643
 961.8500, -72.705
 961.8600, -71.557
 961.8700, -72.671
 961.8800, -71.884
 961.8900, -72.743
 961.9000, -72.568
 961.9100, -72.050
 961.9200, -72.027
 961.9300, -71.853
 961.9400, -72.306
 961.9500, -71.898
 961.9600, -72.626
 961.9700, -71.509
 961.9800, -72.898
 961.9900, -72.712
 962.0000, -72.169
 962.0100, -72.476
 962.0200, -72.035
 962.0300, -72.379
 962.0400, -71.785
 962.0500, -71.972
 962.0600, -72.756
 962.0700, -72.250
 962.0800, -72.101
 962.0900, -72.034
 962.1000, -71.810
 962.1100, -71.292
 962.1200, -71.472
 962.1300, -72.350
 962.1400, -71.255
 962.1500, -71.750
 962.1600, -72.568
 962.1700, -72.536
 962.1800, -72.511
 962.1900, -71.654
 962.2000, -72.195
 962.2100, -72.693
 962.2200, -72.597
 962.2300, -72.306
 962.2400, -71.264
 962.2500, -71.636
 962.2600, -71.914
 962.2700, -71.416
 962.2800, -72.299
 962.2900, -71.572
 962.3000, -70.747
 962.3100, -72.762
 962.3200, -71.397
 962.3300, -71.834
 962.3400, -71.406
 962.3500, -72.052
 962.3600, -72.097
 962.3700, -70.756
 962.3800, -71.796
 962.3900, -72.028
 962.4000, -71.190
 962.4100, -70.982
 962.4200, -71.548
 962.4300, -70.816
 962.4400, -72.266
 962.4500, -71.539
 962.4600, -71.134
 962.4700, -72.437
 962.4800, -71.055
 962.4900, -72.264
 962.5000, -71.484
 962.5100, -71.002
 962.5200, -71.863
 962.5300, -71.387
 962.5400, -72.006
 962.5500, -71.486
 962.5600, -71.748
 962.5700, -71.581
 962.5800, -71.414
 962.5900, -71.343
 962.6000, -71.840
 962.6100, -71.097
 962.6200, -73.075
 962.6300, -71.280
 962.6400, -72.524
 962.6500, -71.575
 962.6600, -71.337
 962.6700, -71.280
 962.6800, -71.927
 962.6900, -71.396
 962.7000, -71.963
 962.7100, -71.071
 962.7200, -72.147
 962.7300, -70.795
 962.7400, -73.171
 962.7500, -71.612
 962.7600, -71.153
 962.7700, -71.821
 962.7800, -72.668
 962.7900, -71.731
 962.8000, -71.660
 962.8100, -71.458
 962.8200, -71.952
 962.8300, -71.384
 962.8400, -71.676
 962.8500, -71.730
 962.8600, -71.568
 962.8700, -72.208
 962.8800, -71.261
 962.8900, -71.562
 962.9000, -71.296
 962.9100, -72.396
 962.9200, -72.120
 962.9300, -71.219
 962.9400, -71.147
 962.9500, -70.878
 962.9600, -70.949
 962.9700, -71.250
 962.9800, -71.095
 962.9900, -71.745
 963.0000, -71.921
 963.0100, -71.805
 963.0200, -71.537
 963.0300, -71.685
 963.0400, -71.333
 963.0500, -71.212
 963.0600, -70.867
 963.0700, -71.799
 963.0800, -71.036
 963.0900, -70.611
 963.1000, -71.484
 963.1100, -70.800
 963.1200, -70.478
 963.1300, -71.151
 963.1400, -71.051
 963.1500, -71.012
 963.1600, -70.807
 963.1700, -70.952
 963.1800, -70.304
 963.1900, -70.583
 963.2000, -70.552
 963.2100, -70.178
 963.2200, -70.162
 963.2300, -70.068
 963.2400, -70.540
 963.2500, -71.097
 963.2600, -70.838
 963.2700, -70.701
 963.2800, -70.832
 963.2900, -70.590
 963.3000, -70.557
 963.3100, -70.038
 963.3200, -70.764
 963.3300, -70.203
 963.3400, -69.906
 963.3500, -70.204
 963.3600, -69.972
 963.3700, -69.935
 963.3800, -70.434
 963.3900, -70.489
 963.4000, -70.097
 963.4100, -70.107
 963.4200, -69.931
 963.4300, -69.455
 963.4400, -69.748
 963.4500, -70.334
 963.4600, -70.260
 963.4700, -69.795
 963.4800, -70.532
 963.4900, -69.848
 963.5000, -69.874
 963.5100, -69.716
 963.5200, -70.114
 963.5300, -70.369
 963.5400, -70.622
 963.5500, -70.218
 963.5600, -70.030
 963.5700, -70.082
 963.5800, -69.305
 963.5900, -70.310
 963.6000, -69.334
 963.6100, -70.167
 963.6200, -69.539
 963.6300, -69.719
 963.6400, -69.713
 963.6500, -69.869
 963.6600, -70.063
 963.6700, -69.771
 963.6800, -69.047
 963.6900, -69.987
 963.7000, -69.894
 963.7100, -69.523
 963.7200, -69.351
 963.7300, -69.431
 963.7400, -69.616
 963.7500, -69.803
 963.7600, -69.751
 963.7700, -68.815
 963.7800, -69.299
 963.7900, -68.788
 963.8000, -69.220
 963.8100, -69.157
 963.8200, -69.263
 963.8300, -69.641
 963.8400, -69.403
 963.8500, -69.174
 963.8600, -69.302
 963.8700, -69.538
 963.8800, -68.823
 963.8900, -68.960
 963.9000, -69.056
 963.9100, -68.943
 963.9200, -69.330
 963.9300, -69.272
 963.9400, -69.515
 963.9500, -68.792
 963.9600, -69.456
 963.9700, -68.938
 963.9800, -68.934
 963.9900, -68.621
 964.0000, -68.610
 964.0100, -69.370
 964.0200, -68.934
 964.0300, -68.809
 964.0400, -68.850
 964.0500, -69.102
 964.0600, -68.927
 964.0700, -68.878
 964.0800, -68.975
 964.0900, -69.201
 964.1000, -69.280
 964.1100, -68.630
 964.1200, -68.959
 964.1300, -68.152
 964.1400, -67.600
 964.1500, -66.320
 964.1600, -66.099
 964.1700, -65.282
 964.1800, -64.048
 964.1900, -63.863
 964.2000, -63.541
 964.2100, -64.200
 964.2200, -64.379
 964.2300, -63.935
 964.2400, -63.267
 964.2500, -63.846
 964.2600, -64.066
 964.2700, -64.614
 964.2800, -64.358
 964.2900, -64.393
 964.3000, -65.240
 964.3100, -66.493
 964.3200, -67.315
 964.3300, -68.196
 964.3400, -68.685
 964.3500, -68.813
 964.3600, -68.708
 964.3700, -68.385
 964.3800, -68.943
 964.3900, -68.724
 964.4000, -68.894
 964.4100, -68.882
 964.4200, -68.634
 964.4300, -68.263
 964.4400, -68.426
 964.4500, -68.563
 964.4600, -68.697
 964.4700, -68.250
 964.4800, -68.064
 964.4900, -68.054
 964.5000, -68.031
 964.5100, -67.877
 964.5200, -67.979
 964.5300, -67.931
 964.5400, -68.295
 964.5500, -67.785
 964.5600, -67.833
 964.5700, -68.100
 964.5800, -67.739
 964.5900, -67.629
 964.6000, -67.305
 964.6100, -67.865
 964.6200, -67.601
 964.6300, -67.689
 964.6400, -67.818
 964.6500, -67.527
 964.6600, -67.182
 964.6700, -67.147
 964.6800, -66.875
 964.6900, -66.658
 964.7000, -65.892
 964.7100, -64.533
 964.7200, -60.944
 964.7300, -56.695
 964.7400, -54.001
 964.7500, -52.027
 964.7600, -49.982
 964.7700, -48.494
 964.7800, -47.727
 964.7900, -47.263
 964.8000, -47.559
 964.8100, -47.562
 964.8200, -47.661
 964.8300, -47.284
 964.8400, -47.045
 964.8500, -47.554
 964.8600, -48.403
 964.8700, -48.369
 964.8800, -48.641
 964.8900, -48.562
 964.9000, -49.083
 964.9100, -50.773
 964.9200, -53.723
 964.9300, -56.773
 964.9400, -61.176
 964.9500, -64.866
 964.9600, -66.464
 964.9700, -66.573
 964.9800, -66.849
 964.9900, -67.325
 965.0000, -66.930
 965.0100, -67.031
 965.0200, -67.353
 965.0300, -67.132
 965.0400, -66.771
 965.0500, -67.038
 965.0600, -67.059
 965.0700, -66.575
 965.0800, -66.794
 965.0900, -66.869
 965.1000, -66.426
 965.1100, -66.674
 965.1200, -66.884
 965.1300, -66.474
 965.1400, -66.511
 965.1500, -66.600
 965.1600, -66.450
 965.1700, -66.242
 965.1800, -66.504
 965.1900, -66.170
 965.2000, -65.678
 965.2100, -65.641
 965.2200, -65.447
 965.2300, -65.997
 965.2400, -65.366
 965.2500, -64.822
 965.2600, -64.888
 965.2700, -64.688
 965.2800, -64.658
 965.2900, -64.412
 965.3000, -63.602
 965.3100, -61.122
 965.3200, -55.761
 965.3300, -52.099
 965.3400, -48.711
 965.3500, -46.286
 965.3600, -44.610
 965.3700, -44.160
 965.3800, -43.581
 965.3900, -43.547
 965.4000, -43.728
 965.4100, -43.634
 965.4200, -43.620
 965.4300, -42.942
 965.4400, -42.455
 965.4500, -42.670
 965.4600, -42.838
 965.4700, -42.522
 965.4800, -42.674
 965.4900, -42.922
 965.5000, -43.709
 965.5100, -44.351
 965.5200, -44.510
 965.5300, -44.226
 965.5400, -43.538
 965.5500, -42.887
 965.5600, -42.198
 965.5700, -41.829
 965.5800, -41.615
 965.5900, -41.634
 965.6000, -41.869
 965.6100, -41.838
 965.6200, -41.708
 965.6300, -41.826
 965.6400, -42.400
 965.6500, -43.009
 965.6600, -43.284
 965.6700, -43.559
 965.6800, -44.550
 965.6900, -46.703
 965.7000, -48.663
 965.7100, -51.583
 965.7200, -54.418
 965.7300, -56.658
 965.7400, -56.485
 965.7500, -55.182
 965.7600, -54.829
 965.7700, -54.103
 965.7800, -54.299
 965.7900, -53.501
 965.8000, -53.090
 965.8100, -53.378
 965.8200, -53.270
 965.8300, -53.495
 965.8400, -54.075
 965.8500, -53.260
 965.8600, -53.426
 965.8700, -54.053
 965.8800, -54.490
 965.8900, -56.608
 965.9000, -58.758
 965.9100, -59.988
 965.9200, -62.079
 965.9300, -62.995
 965.9400, -64.231
 965.9500, -64.664
 965.9600, -64.758
 965.9700, -64.795
 965.9800, -64.408
 965.9900, -62.414
 966.0000, -63.212
 966.0100, -62.444
 966.0200, -61.921
 966.0300, -62.011
 966.0400, -61.648
 966.0500, -61.535
 966.0600, -62.059
 966.0700, -60.693
 966.0800, -63.058
 966.0900, -62.623
 966.1000, -61.748
 966.1100, -60.631
 966.1200, -60.855
 966.1300, -64.784
 966.1400, -64.519
 966.1500, -64.848
 966.1600, -64.817
 966.1700, -64.092
 966.1800, -64.556
 966.1900, -64.047
 966.2000, -63.601
 966.2100, -62.499
 966.2200, -62.596
 966.2300, -63.008
 966.2400, -60.337
 966.2500, -59.967
 966.2600, -57.898
 966.2700, -57.664
 966.2800, -59.659
 966.2900, -56.186
 966.3000, -54.952
 966.3100, -53.088
 966.3200, -52.559
 966.3300, -53.579
 966.3400, -55.362
 966.3500, -53.769
 966.3600, -52.636
 966.3700, -51.684
 966.3800, -51.237
 966.3900, -55.155
 966.4000, -55.453
 966.4100, -53.194
 966.4200, -52.573
 966.4300, -52.047
 966.4400, -54.245
 966.4500, -57.496
 966.4600, -57.931
 966.4700, -59.357
 966.4800, -58.523
 966.4900, -57.701
 966.5000, -56.678
 966.5100, -55.570
 966.5200, -55.013
 966.5300, -54.579
 966.5400, -54.379
 966.5500, -54.050
 966.5600, -54.320
 966.5700, -54.371
 966.5800, -54.069
 966.5900, -53.980
 966.6000, -54.099
 966.6100, -54.282
 966.6200, -53.846
 966.6300, -53.439
 966.6400, -52.903
 966.6500, -51.952
 966.6600, -52.666
 966.6700, -53.610
 966.6800, -53.155
 966.6900, -52.036
 966.7000, -51.508
 966.7100, -51.057
 966.7200, -51.642
 966.7300, -51.216
 966.7400, -49.852
 966.7500, -48.618
 966.7600, -47.853
 966.7700, -47.546
 966.7800, -47.675
 966.7900, -46.922
 966.8000, -46.134
 966.8100, -45.675
 966.8200, -45.493
 966.8300, -45.251
 966.8400, -44.420
 966.8500, -43.732
 966.8600, -43.716
 966.8700, -43.261
 966.8800, -43.173
 966.8900, -43.045
 966.9000, -42.726
 966.9100, -42.843
 966.9200, -42.747
 966.9300, -42.784
 966.9400, -42.326
 966.9500, -42.552
 966.9600, -43.523
 966.9700, -43.624
 966.9800, -44.056
 966.9900, -44.772
 967.0000, -44.187
 967.0100, -44.818
 967.0200, -45.570
 967.0300, -45.411
 967.0400, -45.334
 967.0500, -44.562
 967.0600, -44.026
 967.0700, -43.969
 967.0800, -44.189
 967.0900, -44.590
 967.1000, -44.610
 967.1100, -44.306
 967.1200, -44.276
 967.1300, -44.776
 967.1400, -44.892
 967.1500, -45.209
 967.1600, -44.811
 967.1700, -45.056
 967.1800, -46.003
 967.1900, -46.259
 967.2000, -45.609
 967.2100, -43.849
 967.2200, -42.404
 967.2300, -41.191
 967.2400, -40.340
 967.2500, -39.393
 967.2600, -38.629
 967.2700, -38.036
 967.2800, -37.691
 967.2900, -37.485
 967.3000, -37.082
 967.3100, -36.498
 967.3200, -36.158
 967.3300, -36.163
 967.3400, -36.124
 967.3500, -36.168
 967.3600, -36.516
 967.3700, -36.792
 967.3800, -36.960
 967.3900, -36.994
 967.4000, -37.125
 967.4100, -37.431
 967.4200, -37.747
 967.4300, -38.064
 967.4400, -38.578
 967.4500, -39.215
 967.4600, -40.014
 967.4700, -40.229
 967.4800, -40.596
 967.4900, -40.363
 967.5000, -40.102
 967.5100, -41.787
 967.5200, -42.973
 967.5300, -44.344
 967.5400, -45.755
 967.5500, -46.130
 967.5600, -46.573
 967.5700, -46.733
 967.5800, -46.736
 967.5900, -46.947
 967.6000, -47.085
 967.6100, -47.259
 967.6200, -47.919
 967.6300, -48.332
 967.6400, -49.207
 967.6500, -49.503
 967.6600, -48.834
 967.6700, -47.581
 967.6800, -46.430
 967.6900, -46.143
 967.7000, -45.889
 967.7100, -45.951
 967.7200, -46.042
 967.7300, -45.571
 967.7400, -45.657
 967.7500, -45.501
 967.7600, -45.123
 967.7700, -45.731
 967.7800, -45.804
 967.7900, -45.527
 967.8000, -46.221
 967.8100, -46.690
 967.8200, -48.406
 967.8300, -51.128
 967.8400, -53.131
 967.8500, -53.951
 967.8600, -52.985
 967.8700, -50.154
 967.8800, -47.644
 967.8900, -45.758
 967.9000, -44.624
 967.9100, -43.388
 967.9200, -42.381
 967.9300, -40.950
 967.9400, -39.687
 967.9500, -38.530
 967.9600, -37.591
 967.9700, -36.960
 967.9800, -36.708
 967.9900, -36.413
 968.0000, -36.369
 968.0100, -36.162
 968.0200, -35.927
 968.0300, -35.763
 968.0400, -35.839
 968.0500, -35.981
 968.0600, -36.404
 968.0700, -36.566
 968.0800, -36.697
 968.0900, -37.053
 968.1000, -37.506
 968.1100, -37.676
 968.1200, -37.571
 968.1300, -37.505
 968.1400, -37.052
 968.1500, -36.656
 968.1600, -36.876
 968.1700, -36.691
 968.1800, -36.208
 968.1900, -35.394
 968.2000, -34.823
 968.2100, -34.812
 968.2200, -34.737
 968.2300, -34.646
 968.2400, -34.540
 968.2500, -34.750
 968.2600, -34.968
 968.2700, -35.257
 968.2800, -35.064
 968.2900, -34.932
 968.3000, -35.067
 968.3100, -35.403
 968.3200, -35.707
 968.3300, -35.934
 968.3400, -36.371
 968.3500, -37.195
 968.3600, -38.148
 968.3700, -38.902
 968.3800, -39.319
 968.3900, -39.829
 968.4000, -40.675
 968.4100, -41.651
 968.4200, -42.732
 968.4300, -43.427
 968.4400, -43.546
 968.4500, -43.340
 968.4600, -41.977
 968.4700, -40.624
 968.4800, -39.554
 968.4900, -38.606
 968.5000, -38.174
 968.5100, -37.763
 968.5200, -37.557
 968.5300, -37.266
 968.5400, -36.660
 968.5500, -36.387
 968.5600, -36.500
 968.5700, -36.596
 968.5800, -36.742
 968.5900, -36.847
 968.6000, -37.133
 968.6100, -37.763
 968.6200, -38.381
 968.6300, -39.163
 968.6400, -40.012
 968.6500, -40.891
 968.6600, -41.750
 968.6700, -42.607
 968.6800, -43.189
 968.6900, -43.411
 968.7000, -43.367
 968.7100, -42.688
 968.7200, -41.947
 968.7300, -41.616
 968.7400, -41.359
 968.7500, -41.740
 968.7600, -41.253
 968.7700, -40.823
 968.7800, -40.896
 968.7900, -40.856
 968.8000, -40.803
 968.8100, -40.767
 968.8200, -40.536
 968.8300, -40.787
 968.8400, -41.124
 968.8500, -41.867
 968.8600, -42.404
 968.8700, -42.434
 968.8800, -42.520
 968.8900, -42.663
 968.9000, -41.909
 968.9100, -41.527
 968.9200, -40.734
 968.9300, -39.911
 968.9400, -39.687
 968.9500, -39.803
 968.9600, -39.885
 968.9700, -40.238
 968.9800, -39.473
 968.9900, -38.811
 969.0000, -38.979
 969.0100, -38.333
 969.0200, -38.001
 969.0300, -37.457
 969.0400, -37.065
 969.0500, -37.086
 969.0600, -37.071
 969.0700, -37.101
 969.0800, -37.073
 969.0900, -37.267
 969.1000, -37.510
 969.1100, -37.246
 969.1200, -36.959
 969.1300, -36.507
 969.1400, -36.325
 969.1500, -36.197
 969.1600, -36.166
 969.1700, -36.430
 969.1800, -36.736
 969.1900, -36.957
 969.2000, -36.800
 969.2100, -36.854
 969.2200, -37.263
 969.2300, -37.203
 969.2400, -37.185
 969.2500, -37.127
 969.2600, -36.653
 969.2700, -37.082
 969.2800, -37.728
 969.2900, -38.315
 969.3000, -39.168
 969.3100, -39.441
 969.3200, -39.555
 969.3300, -39.801
 969.3400, -39.491
 969.3500, -39.163
 969.3600, -39.025
 969.3700, -38.698
 969.3800, -38.630
 969.3900, -38.628
 969.4000, -38.617
 969.4100, -38.890
 969.4200, -39.339
 969.4300, -39.642
 969.4400, -39.711
 969.4500, -39.636
 969.4600, -39.540
 969.4700, -39.962
 969.4800, -40.768
 969.4900, -41.714
 969.5000, -42.722
 969.5100, -44.562
 969.5200, -46.852
 969.5300, -49.460
 969.5400, -52.117
 969.5500, -53.706
 969.5600, -55.606
 969.5700, -55.990
 969.5800, -56.930
 969.5900, -57.505
 969.6000, -57.839
 969.6100, -58.538
 969.6200, -58.357
 969.6300, -58.264
 969.6400, -57.902
 969.6500, -56.672
 969.6600, -54.834
 969.6700, -52.227
 969.6800, -49.574
 969.6900, -47.160
 969.7000, -44.682
 969.7100, -42.715
 969.7200, -41.543
 969.7300, -40.979
 969.7400, -40.732
 969.7500, -40.623
 969.7600, -40.751
 969.7700, -40.670
 969.7800, -40.498
 969.7900, -40.308
 969.8000, -40.234
 969.8100, -40.351
 969.8200, -40.503
 969.8300, -41.014
 969.8400, -41.835
 969.8500, -42.943
 969.8600, -44.261
 969.8700, -45.564
 969.8800, -46.500
 969.8900, -46.202
 969.9000, -45.017
 969.9100, -43.756
 969.9200, -42.819
 969.9300, -41.947
 969.9400, -41.394
 969.9500, -41.003
 969.9600, -40.656
 969.9700, -40.715
 969.9800, -40.965
 969.9900, -40.581
 970.0000, -40.454
 970.0100, -39.976
 970.0200, -39.347
 970.0300, -39.663
 970.0400, -39.133
 970.0500, -38.427
 970.0600, -38.348
 970.0700, -38.115
 970.0800, -38.636
 970.0900, -39.050
 970.1000, -38.630
 970.1100, -38.252
 970.1200, -38.539
 970.1300, -38.599
 970.1400, -39.419
 970.1500, -39.535
 970.1600, -39.432
 970.1700, -40.158
 970.1800, -41.264
 970.1900, -42.672
 970.2000, -44.268
 970.2100, -46.069
 970.2200, -50.189
 970.2300, -53.347
 970.2400, -53.782
 970.2500, -57.293
 970.2600, -57.611
 970.2700, -57.310
 970.2800, -57.193
 970.2900, -54.926
 970.3000, -57.372
 970.3100, -59.485
 970.3200, -58.537
 970.3300, -62.416
 970.3400, -62.141
 970.3500, -62.570
 970.3600, -65.599
 970.3700, -65.492
 970.3800, -65.884
 970.3900, -65.503
 970.4000, -65.971
 970.4100, -66.572
 970.4200, -67.027
 970.4300, -67.096
 970.4400, -66.541
 970.4500, -66.394
 970.4600, -66.398
 970.4700, -68.132
 970.4800, -68.479
 970.4900, -68.892
 970.5000, -68.899
 970.5100, -68.737
 970.5200, -68.461
 970.5300, -68.876
 970.5400, -69.106
 970.5500, -69.322
 970.5600, -69.061
 970.5700, -69.243
 970.5800, -69.171
 970.5900, -68.685
 970.6000, -68.752
 970.6100, -69.219
 970.6200, -69.453
 970.6300, -69.725
 970.6400, -69.817
 970.6500, -69.416
 970.6600, -69.649
 970.6700, -69.309
 970.6800, -69.847
 970.6900, -70.244
 970.7000, -69.690
 970.7100, -69.361
 970.7200, -68.853
 970.7300, -69.753
 970.7400, -70.082
 970.7500, -69.409
 970.7600, -69.864
 970.7700, -70.309
 970.7800, -69.709
 970.7900, -69.748
 970.8000, -69.576
 970.8100, -69.911
 970.8200, -69.856
 970.8300, -69.956
 970.8400, -69.774
 970.8500, -70.103
 970.8600, -70.587
 970.8700, -69.684
 970.8800, -69.949
 970.8900, -69.733
 970.9000, -69.829
 970.9100, -70.341
 970.9200, -70.673
 970.9300, -69.774
 970.9400, -70.100
 970.9500, -69.618
 970.9600, -69.974
 970.9700, -70.282
 970.9800, -70.531
 970.9900, -70.530
 971.0000, -70.314
 971.0100, -70.720
 971.0200, -70.242
 971.0300, -69.947
 971.0400, -70.625
 971.0500, -70.927
 971.0600, -71.042
 971.0700, -70.752
 971.0800, -71.061
 971.0900, -71.956
 971.1000, -70.458
 971.1100, -70.866
 971.1200, -70.807
 971.1300, -71.200
 971.1400, -71.146
 971.1500, -71.180
 971.1600, -71.445
 971.1700, -71.189
 971.1800, -70.923
 971.1900, -71.294
 971.2000, -71.845
 971.2100, -71.236
 971.2200, -71.653
 971.2300, -71.448
 971.2400, -70.857
 971.2500, -72.255
 971.2600, -71.850
 971.2700, -71.207
 971.2800, -71.463
 971.2900, -71.302
 971.3000, -72.589
 971.3100, -71.671
 971.3200, -71.692
 971.3300, -71.768
 971.3400, -71.788
 971.3500, -71.992
 971.3600, -71.962
 971.3700, -71.398
 971.3800, -72.500
 971.3900, -72.072
 971.4000, -72.408
 971.4100, -71.916
 971.4200, -72.002
 971.4300, -71.981
 971.4400, -71.498
 971.4500, -71.685
 971.4600, -71.535
 971.4700, -71.810
 971.4800, -72.015
 971.4900, -71.862
 971.5000, -71.351
 971.5100, -71.826
 971.5200, -72.249
 971.5300, -72.004
 971.5400, -71.467
 971.5500, -71.341
 971.5600, -71.051
 971.5700, -72.626
 971.5800, -71.885
 971.5900, -71.900
 971.6000, -72.614
 971.6100, -72.459
 971.6200, -71.940
 971.6300, -72.380
 971.6400, -72.053
 971.6500, -72.353
 971.6600, -72.603
 971.6700, -72.054
 971.6800, -73.053
 971.6900, -72.417
 971.7000, -72.234
 971.7100, -72.235
 971.7200, -71.866
 971.7300, -72.154
 971.7400, -73.059
 971.7500, -73.466
 971.7600, -73.327
 971.7700, -72.973
 971.7800, -72.992
 971.7900, -71.440
 971.8000, -72.202
 971.8100, -73.374
 971.8200, -72.933
 971.8300, -72.747
 971.8400, -72.967
 971.8500, -72.506
 971.8600, -72.797
 971.8700, -72.925
 971.8800, -72.303
 971.8900, -72.913
 971.9000, -72.670
 971.9100, -72.750
 971.9200, -72.813
 971.9300, -73.097
 971.9400, -71.691
 971.9500, -72.915
 971.9600, -72.863
 971.9700, -73.215
 971.9800, -74.167
 971.9900, -73.001
 972.0000, -73.552
 972.0100, -74.022
 972.0200, -73.139
 972.0300, -72.173
 972.0400, -72.149
 972.0500, -73.530
 972.0600, -73.400
 972.0700, -73.997
 972.0800, -73.758
 972.0900, -72.344
 972.1000, -73.545
 972.1100, -72.720
 972.1200, -73.191
 972.1300, -74.080
 972.1400, -72.899
 972.1500, -73.029
 972.1600, -72.900
 972.1700, -73.218
 972.1800, -74.736
 972.1900, -74.319
 972.2000, -73.058
 972.2100, -73.270
 972.2200, -72.693
 972.2300, -73.698
 972.2400, -73.676
 972.2500, -74.032
 972.2600, -74.237
 972.2700, -73.653
 972.2800, -74.078
 972.2900, -72.600
 972.3000, -74.620
 972.3100, -72.961
 972.3200, -72.480
 972.3300, -73.287
 972.3400, -73.850
 972.3500, -74.050
 972.3600, -73.430
 972.3700, -73.175
 972.3800, -73.131
 972.3900, -72.763
 972.4000, -73.823
 972.4100, -74.160
 972.4200, -73.806
 972.4300, -73.774
 972.4400, -74.695
 972.4500, -73.795
 972.4600, -74.341
 972.4700, -72.578
 972.4800, -74.307
 972.4900, -73.699
 972.5000, -74.290
 972.5100, -74.284
 972.5200, -73.238
 972.5300, -72.811
 972.5400, -73.758
 972.5500, -74.084
 972.5600, -74.029
 972.5700, -74.414
 972.5800, -72.548
 972.5900, -74.128
 972.6000, -74.798
 972.6100, -74.166
 972.6200, -74.489
 972.6300, -74.057
 972.6400, -74.596
 972.6500, -73.770
 972.6600, -74.405
 972.6700, -74.932
 972.6800, -73.512
 972.6900, -74.758
 972.7000, -74.151
 972.7100, -73.668
 972.7200, -74.009
 972.7300, -75.416
 972.7400, -72.826
 972.7500, -73.720
 972.7600, -75.223
 972.7700, -73.745
 972.7800, -75.840
 972.7900, -74.442
 972.8000, -74.353
 972.8100, -75.402
 972.8200, -74.677
 972.8300, -74.329
 972.8400, -73.915
 972.8500, -76.804
 972.8600, -74.687
 972.8700, -75.429
 972.8800, -74.844
 972.8900, -74.758
 972.9000, -76.113
 972.9100, -76.021
 972.9200, -76.421
 972.9300, -73.389
 972.9400, -76.140
 972.9500, -75.472
 972.9600, -74.288
 972.9700, -75.896
 972.9800, -74.621
 972.9900, -74.376
 973.0000, -76.034
 973.0100, -74.140
 973.0200, -74.001
 973.0300, -75.263
 973.0400, -77.219
 973.0500, -73.122
 973.0600, -77.313
 973.0700, -77.436
 973.0800, -75.320
 973.0900, -76.231
 973.1000, -75.713
 973.1100, -75.062
 973.1200, -75.576
 973.1300, -73.777
 973.1400, -76.817
 973.1500, -74.730
 973.1600, -74.984
 973.1700, -75.596
 973.1800, -74.120
 973.1900, -74.251
 973.2000, -76.523
 973.2100, -76.844
 973.2200, -74.520
 973.2300, -75.326
 973.2400, -75.640
 973.2500, -74.132
 973.2600, -74.407
 973.2700, -73.746
 973.2800, -75.526
 973.2900, -75.154
 973.3000, -75.567
 973.3100, -75.024
 973.3200, -75.349
 973.3300, -75.185
 973.3400, -73.245
 973.3500, -77.676
 973.3600, -75.171
 973.3700, -74.046
 973.3800, -77.661
 973.3900, -75.943
 973.4000, -74.591
 973.4100, -75.963
 973.4200, -73.851
 973.4300, -74.775
 973.4400, -73.714
 973.4500, -74.898
 973.4600, -77.033
 973.4700, -74.432
 973.4800, -73.984
 973.4900, -74.664
 973.5000, -76.909
 973.5100, -75.749
 973.5200, -76.130
 973.5300, -74.475
 973.5400, -74.913
 973.5500, -74.840
 973.5600, -76.115
 973.5700, -75.314
 973.5800, -75.872
 973.5900, -75.313
 973.6000, -77.611
 973.6100, -77.770
 973.6200, -75.237
 973.6300, -78.134
 973.6400, -75.476
 973.6500, -75.574
 973.6600, -75.709
 973.6700, -75.249
 973.6800, -75.651
 973.6900, -75.822
 973.7000, -77.396
 973.7100, -77.252
 973.7200, -77.228
 973.7300, -75.640
 973.7400, -78.985
 973.7500, -75.358
 973.7600, -77.318
 973.7700, -80.241
 973.7800, -75.098
 973.7900, -76.630
 973.8000, -74.744
 973.8100, -75.079
 973.8200, -76.690
 973.8300, -75.888
 973.8400, -77.030
 973.8500, -74.631
 973.8600, -76.018
 973.8700, -76.208
 973.8800, -76.764
 973.8900, -75.537
 973.9000, -76.783
 973.9100, -75.799
 973.9200, -74.766
 973.9300, -74.864
 973.9400, -75.809
 973.9500, -76.181
 973.9600, -76.274
 973.9700, -75.775
 973.9800, -74.300
 973.9900, -78.308
 974.0000, -77.645
 974.0100, -76.795
 974.0200, -76.251
 974.0300, -76.272
 974.0400, -77.607
 974.0500, -75.270
 974.0600, -76.442
 974.0700, -74.799
 974.0800, -76.109
 974.0900, -75.169
 974.1000, -77.031
 974.1100, -75.068
 974.1200, -76.568
 974.1300, -79.228
 974.1400, -76.743
 974.1500, -76.344
 974.1600, -75.531
 974.1700, -77.296
 974.1800, -74.694
 974.1900, -76.439
 974.2000, -77.846
 974.2100, -75.949
 974.2200, -75.088
 974.2300, -77.426
 974.2400, -75.276
 974.2500, -78.674
 974.2600, -76.377
 974.2700, -76.629
 974.2800, -74.034
 974.2900, -76.354
 974.3000, -80.028
 974.3100, -79.024
 974.3200, -75.776
 974.3300, -76.608
 974.3400, -78.096
 974.3500, -76.083
 974.3600, -75.011
 974.3700, -76.675
 974.3800, -77.955
 974.3900, -78.115
 974.4000, -77.120
 974.4100, -77.296
 974.4200, -80.645
 974.4300, -77.050
 974.4400, -76.297
 974.4500, -74.880
 974.4600, -78.025
 974.4700, -77.193
 974.4800, -76.113
 974.4900, -77.378
 974.5000, -77.899
 974.5100, -75.573
 974.5200, -77.393
 974.5300, -74.872
 974.5400, -76.089
 974.5500, -75.375
 974.5600, -77.019
 974.5700, -76.155
 974.5800, -76.232
 974.5900, -76.507
 974.6000, -79.939
 974.6100, -77.295
 974.6200, -75.320
 974.6300, -75.437
 974.6400, -76.087
 974.6500, -77.873
 974.6600, -77.192
 974.6700, -75.782
 974.6800, -78.824
 974.6900, -79.555
 974.7000, -76.407
 974.7100, -78.501
 974.7200, -75.457
 974.7300, -76.215
 974.7400, -76.542
 974.7500, -77.417
 974.7600, -76.083
 974.7700, -76.334
 974.7800, -78.173
 974.7900, -76.909
 974.8000, -75.915
 974.8100, -76.462
 974.8200, -83.512
 974.8300, -77.786
 974.8400, -74.877
 974.8500, -78.248
 974.8600, -78.932
 974.8700, -75.714
 974.8800, -80.864
 974.8900, -77.331
 974.9000, -89.354
 974.9100, -75.056
 974.9200, -76.394
 974.9300, -77.602
 974.9400, -76.320
 974.9500, -75.061
 974.9600, -75.632
 974.9700, -80.365
 974.9800, -79.723
 974.9900, -75.071
 975.0000, -75.785
 975.0100, -78.949
 975.0200, -77.466
 975.0300, -78.556
 975.0400, -76.727
 975.0500, -76.838
 975.0600, -80.195
 975.0700, -75.794
 975.0800, -79.330
 975.0900, -81.222
 975.1000, -77.088
 975.1100, -77.286
 975.1200, -76.230
 975.1300, -75.182
 975.1400, -76.572
 975.1500, -75.740
 975.1600, -78.497
 975.1700, -81.066
 975.1800, -77.064
 975.1900, -80.742
 975.2000, -77.926
 975.2100, -80.099
 975.2200, -76.796
 975.2300, -77.001
 975.2400, -83.378
 975.2500, -75.634
 975.2600, -76.034
 975.2700, -77.128
 975.2800, -78.690
 975.2900, -78.804
 975.3000, -83.873
 975.3100, -77.848
 975.3200, -76.519
 975.3300, -76.155
 975.3400, -75.270
 975.3500, -76.413
 975.3600, -76.742
 975.3700, -80.266
 975.3800, -77.139
 975.3900, -77.123
 975.4000, -74.891
 975.4100, -78.368
 975.4200, -76.431
 975.4300, -77.598
 975.4400, -78.012
 975.4500, -78.141
 975.4600, -76.989
 975.4700, -79.737
 975.4800, -78.487
 975.4900, -76.545
 975.5000, -81.370
 975.5100, -75.513
 975.5200, -78.985
 975.5300, -76.412
 975.5400, -77.513
 975.5500, -78.960
 975.5600, -77.343
 975.5700, -76.413
 975.5800, -81.820
 975.5900, -76.367
 975.6000, -77.920
 975.6100, -76.885
 975.6200, -79.035
 975.6300, -75.798
 975.6400, -76.440
 975.6500, -76.565
 975.6600, -77.506
 975.6700, -76.538
 975.6800, -81.296
 975.6900, -80.370
 975.7000, -79.957
 975.7100, -76.730
 975.7200, -75.169
 975.7300, -82.592
 975.7400, -77.804
 975.7500, -78.641
 975.7600, -75.703
 975.7700, -78.062
 975.7800, -76.934
 975.7900, -75.180
 975.8000, -77.304
 975.8100, -80.184
 975.8200, -82.738
 975.8300, -78.690
 975.8400, -82.366
 975.8500, -79.222
 975.8600, -78.349
 975.8700, -79.546
 975.8800, -79.677
 975.8900, -75.448
 975.9000, -77.990
 975.9100, -79.221
 975.9200, -79.811
 975.9300, -79.567
 975.9400, -77.927
 975.9500, -88.134
 975.9600, -79.703
 975.9700, -79.385
 975.9800, -77.036
 975.9900, -78.278
 976.0000, -82.346
 976.0100, -80.576
 976.0200, -76.685
 976.0300, -85.613
 976.0400, -78.429
 976.0500, -77.991
 976.0600, -78.567
 976.0700, -82.614
 976.0800, -77.682
 976.0900, -77.409
 976.1000, -77.183
 976.1100, -77.737
 976.1200, -79.174
 976.1300, -76.079
 976.1400, -79.709
 976.1500, -83.262
 976.1600, -77.705
 976.1700, -78.727
 976.1800, -77.719
 976.1900, -77.639
 976.2000, -82.451
 976.2100, -84.237
 976.2200, -91.772
 976.2300, -78.239
 976.2400, -79.560
 976.2500, -75.595
 976.2600, -80.938
 976.2700, -78.884
 976.2800, -77.503
 976.2900,-210.000
 976.3000, -81.781
 976.3100, -78.529
 976.3200, -75.873
 976.3300, -78.042
 976.3400, -76.184
 976.3500, -76.142
 976.3600, -77.226
 976.3700, -78.535
 976.3800, -77.028
 976.3900, -76.892
 976.4000, -76.077
 976.4100, -79.368
 976.4200, -77.425
 976.4300, -86.680
 976.4400, -76.331
 976.4500, -81.359
 976.4600, -79.316
 976.4700, -80.537
 976.4800, -77.608
 976.4900, -79.237
 976.5000, -77.504
 976.5100, -77.646
 976.5200, -89.384
 976.5300, -76.921
 976.5400, -78.420
 976.5500, -77.027
 976.5600, -78.702
 976.5700, -76.481
 976.5800, -80.480
 976.5900, -78.342
 976.6000, -81.080
 976.6100, -80.508
 976.6200, -79.144
 976.6300, -79.804
 976.6400, -85.860
 976.6500, -78.368
 976.6600,-210.000
 976.6700, -80.970
 976.6800, -77.459
 976.6900, -80.716
 976.7000, -77.611
 976.7100, -80.219
 976.7200, -77.151
 976.7300, -80.622
 976.7400, -77.859
 976.7500, -77.641
 976.7600, -77.987
 976.7700, -78.317
 976.7800, -76.837
 976.7900, -85.408
 976.8000, -78.393
 976.8100, -79.577
 976.8200, -78.986
 976.8300, -84.289
 976.8400, -76.812
 976.8500, -75.621
 976.8600, -79.426
 976.8700, -79.438
 976.8800, -78.357
 976.8900, -75.696
 976.9000, -76.955
 976.9100, -78.784
 976.9200, -79.807
 976.9300, -85.797
 976.9400, -80.533
 976.9500, -80.118
 976.9600, -86.873
 976.9700, -77.927
 976.9800, -77.061
 976.9900, -78.813
 977.0000, -80.155
 977.0100, -82.263
 977.0200, -79.501
 977.0300, -78.044
 977.0400, -82.603
 977.0500, -78.590
 977.0600, -78.560
 977.0700, -85.360
 977.0800, -77.985
 977.0900, -78.201
 977.1000, -78.751
 977.1100, -76.358
 977.1200, -77.758
 977.1300, -85.848
 977.1400, -79.158
 977.1500,-210.000
 977.1600, -79.611
 977.1700, -78.502
 977.1800, -78.147
 977.1900, -86.254
 977.2000, -80.347
 977.2100, -83.370
 977.2200, -78.513
 977.2300, -84.299
 977.2400, -79.454
 977.2500, -81.204
 977.2600, -77.767
 977.2700, -79.193
 977.2800, -76.322
 977.2900, -79.808
 977.3000, -78.782
 977.3100, -82.430
 977.3200, -81.378
 977.3300, -79.726
 977.3400, -81.093
 977.3500, -85.008
 977.3600, -78.881
 977.3700, -75.429
 977.3800, -79.209
 977.3900, -81.107
 977.4000, -80.187
 977.4100, -84.500
 977.4200,-210.000
 977.4300, -76.884
 977.4400, -76.649
 977.4500, -79.551
 977.4600, -78.867
 977.4700, -78.563
 977.4800, -79.388
 977.4900,-210.000
 977.5000, -78.103
 977.5100, -81.640
 977.5200, -77.286
 977.5300, -78.412
 977.5400, -80.649
 977.5500, -78.919
 977.5600, -78.204
 977.5700, -77.764
 977.5800, -80.659
 977.5900, -82.078
 977.6000, -80.369
 977.6100, -77.531
 977.6200, -77.901
 977.6300, -81.949
 977.6400, -83.341
 977.6500,-210.000
 977.6600, -79.467
 977.6700, -82.608
 977.6800, -77.836
 977.6900, -78.110
 977.7000, -78.878
 977.7100, -82.242
 977.7200, -78.306
 977.7300, -80.040
 977.7400,-210.000
 977.7500, -88.455
 977.7600, -76.750
 977.7700, -75.608
 977.7800, -89.680
 977.7900, -80.098
 977.8000, -77.507
 977.8100, -78.719
 977.8200, -81.167
 977.8300, -82.272
 977.8400, -77.372
 977.8500,-210.000
 977.8600, -77.983
 977.8700, -80.141
 977.8800, -75.710
 977.8900, -82.987
 977.9000, -80.181
 977.9100, -80.479
 977.9200, -79.621
 977.9300, -77.450
 977.9400, -82.099
 977.9500, -78.522
 977.9600, -80.003
 977.9700, -85.203
 977.9800, -77.530
 977.9900, -83.037
 978.0000,-210.000
 978.0100, -86.265
 978.0200, -80.234
 978.0300,-210.000
 978.0400, -76.079
 978.0500, -81.110
 978.0600, -80.028
 978.0700, -78.780
 978.0800, -81.260
 978.0900, -81.101
 978.1000, -78.579
 978.1100, -89.241
 978.1200, -81.344
 978.1300,-210.000
 978.1400, -79.235
 978.1500, -79.580
 978.1600, -81.271
 978.1700, -79.600
 978.1800, -77.874
 978.1900, -84.109
 978.2000, -79.997
 978.2100, -78.688
 978.2200, -77.653
 978.2300, -77.714
 978.2400, -77.634
 978.2500, -78.559
 978.2600, -78.957
 978.2700, -84.108
 978.2800, -81.098
 978.2900, -79.715
 978.3000, -79.414
 978.3100, -79.172
 978.3200, -83.789
 978.3300, -80.183
 978.3400, -76.938
 978.3500, -84.606
 978.3600, -77.322
 978.3700, -83.136
 978.3800,-210.000
 978.3900, -77.127
 978.4000, -81.127
 978.4100, -78.025
 978.4200, -77.557
 978.4300, -78.533
 978.4400, -79.430
 978.4500, -80.463
 978.4600, -76.846
 978.4700, -87.312
 978.4800, -78.288
 978.4900, -80.420
 978.5000, -85.715
 978.5100, -86.204
 978.5200, -91.374
 978.5300, -77.906
 978.5400, -76.478
 978.5500, -78.839
 978.5600, -80.440
 978.5700, -77.009
 978.5800, -79.921
 978.5900, -77.559
 978.6000, -77.282
 978.6100, -81.755
 978.6200, -82.659
 978.6300, -83.802
 978.6400, -79.944
 978.6500, -83.749
 978.6600, -76.200
 978.6700, -87.196
 978.6800, -79.631
 978.6900, -81.729
 978.7000, -80.673
 978.7100, -79.250
 978.7200, -76.802
 978.7300, -84.024
 978.7400, -82.601
 978.7500, -96.197
 978.7600, -78.355
 978.7700, -76.835
 978.7800,-210.000
 978.7900, -78.104
 978.8000, -86.522
 978.8100, -77.981
 978.8200, -78.706
 978.8300, -77.451
 978.8400, -89.131
 978.8500, -89.011
 978.8600, -80.322
 978.8700, -76.941
 978.8800, -76.813
 978.8900, -83.311
 978.9000, -83.125
 978.9100, -78.052
 978.9200,-210.000
 978.9300, -78.787
 978.9400, -80.390
 978.9500, -78.077
 978.9600,-210.000
 978.9700, -76.433
 978.9800, -81.037
 978.9900, -76.683
 979.0000, -76.514
 979.0100, -78.804
 979.0200, -82.525
 979.0300, -78.865
 979.0400, -79.644
 979.0500, -86.453
 979.0600, -82.102
 979.0700, -81.040
 979.0800, -83.461
 979.0900, -77.052
 979.1000, -82.040
 979.1100,-210.000
 979.1200,-210.000
 979.1300, -77.086
 979.1400, -80.998
 979.1500,-210.000
 979.1600, -78.173
 979.1700, -79.255
 979.1800, -79.266
 979.1900, -76.765
 979.2000, -77.091
 979.2100, -80.217
 979.2200, -81.463
 979.2300, -84.082
 979.2400, -79.547
 979.2500, -77.191
 979.2600, -84.947
 979.2700, -82.457
 979.2800, -78.100
 979.2900, -78.151
 979.3000, -79.424
 979.3100,-210.000
 979.3200, -80.162
 979.3300,-210.000
 979.3400, -79.558
 979.3500, -76.598
 979.3600, -78.466
 979.3700, -84.668
 979.3800, -85.675
 979.3900, -79.420
 979.4000, -82.342
 979.4100, -82.994
 979.4200, -91.681
 979.4300, -80.905
 979.4400, -83.614
 979.4500, -80.446
 979.4600, -80.324
 979.4700, -79.804
 979.4800, -81.736
 979.4900, -77.959
 979.5000, -81.113
 979.5100, -80.031
 979.5200, -79.646
 979.5300, -80.769
 979.5400, -85.703
 979.5500, -78.339
 979.5600, -83.474
 979.5700, -78.562
 979.5800, -77.968
 979.5900, -81.223
 979.6000, -79.133
 979.6100, -82.384
 979.6200, -79.719
 979.6300, -78.618
 979.6400, -84.012
 979.6500, -77.744
 979.6600, -78.926
 979.6700, -83.187
 979.6800,-210.000
 979.6900, -83.619
 979.7000, -81.080
 979.7100, -79.499
 979.7200, -90.483
 979.7300, -81.464
 979.7400, -91.974
 979.7500, -79.169
 979.7600, -78.730
 979.7700, -78.295
 979.7800, -92.938
 979.7900,-210.000
 979.8000, -82.488
 979.8100, -80.771
 979.8200, -79.559
 979.8300, -81.460
 979.8400, -78.767
 979.8500,-210.000
 979.8600, -80.346
 979.8700, -76.710
 979.8800, -78.811
 979.8900, -91.933
 979.9000, -77.018
 979.9100, -78.466
 979.9200, -76.626
 979.9300, -86.878
 979.9400, -81.588
 979.9500, -82.321
 979.9600, -78.526
 979.9700, -78.152
 979.9800, -80.516
 979.9900, -79.702
 980.0000, -79.569
 980.0100, -77.447
 980.0200, -80.330
 980.0300, -78.637
 980.0400, -82.023
 980.0500, -82.613
 980.0600, -82.989
 980.0700, -79.529
 980.0800, -81.873
 980.0900, -82.556
 980.1000, -82.994
 980.1100, -81.599
 980.1200, -81.899
 980.1300, -77.182
 980.1400,-210.000
 980.1500, -89.268
 980.1600, -86.231
 980.1700, -76.104
 980.1800, -78.195
 980.1900,-210.000
 980.2000, -79.384
 980.2100, -79.159
 980.2200, -79.373
 980.2300, -79.090
 980.2400,-210.000
 980.2500, -77.784
 980.2600, -87.747
 980.2700, -78.075
 980.2800, -79.545
 980.2900, -81.687
 980.3000, -81.375
 980.3100, -80.376
 980.3200, -79.850
 980.3300, -78.197
 980.3400, -81.714
 980.3500, -76.594
 980.3600, -83.223
 980.3700, -77.610
 980.3800, -75.638
 980.3900,-108.309
 980.4000, -91.313
 980.4100, -85.611
 980.4200, -80.725
 980.4300, -90.724
 980.4400, -79.015
 980.4500, -79.575
 980.4600, -81.473
 980.4700,-210.000
 980.4800, -80.988
 980.4900, -83.052
 980.5000, -82.627
 980.5100, -77.525
 980.5200, -82.905
 980.5300, -78.327
 980.5400,-210.000
 980.5500, -80.124
 980.5600, -80.344
 980.5700, -79.827
 980.5800, -78.365
 980.5900, -79.974
 980.6000, -85.238
 980.6100, -77.950
 980.6200, -86.383
 980.6300, -78.639
 980.6400, -82.006
 980.6500, -89.247
 980.6600, -78.763
 980.6700, -80.545
 980.6800, -78.341
 980.6900,-210.000
 980.7000, -78.534
 980.7100,-210.000
 980.7200, -81.572
 980.7300, -78.868
 980.7400, -78.170
 980.7500, -77.009
 980.7600, -82.803
 980.7700,-210.000
 980.7800, -79.340
 980.7900,-108.531
 980.8000, -79.584
 980.8100, -77.022
 980.8200, -81.339
 980.8300, -77.029
 980.8400,-210.000
 980.8500,-210.000
 980.8600, -78.723
 980.8700, -81.614
 980.8800, -80.770
 980.8900,-210.000
 980.9000, -85.104
 980.9100, -78.327
 980.9200, -77.708
 980.9300, -80.550
 980.9400, -83.943
 980.9500, -81.777
 980.9600, -79.786
 980.9700, -81.180
 980.9800,-210.000
 980.9900,-210.000
 981.0000, -77.425
 981.0100, -90.494
 981.0200, -84.313
 981.0300, -84.058
 981.0400, -80.645
 981.0500, -79.385
 981.0600, -80.160
 981.0700,-210.000
 981.0800, -79.104
 981.0900, -78.408
 981.1000, -78.111
 981.1100, -87.738
 981.1200, -81.532
 981.1300,-210.000
 981.1400, -77.672
 981.1500, -78.782
 981.1600, -78.896
 981.1700, -79.491
 981.1800, -82.085
 981.1900, -83.547
 981.2000, -81.352
 981.2100, -80.055
 981.2200, -79.204
 981.2300, -80.136
 981.2400, -79.910
 981.2500, -78.505
 981.2600, -80.170
 981.2700, -91.607
 981.2800, -79.669
 981.2900, -79.106
 981.3000, -85.117
 981.3100, -83.019
 981.3200, -77.794
 981.3300,-210.000
 981.3400,-210.000
 981.3500, -95.288
 981.3600, -81.116
 981.3700, -77.798
 981.3800, -78.031
 981.3900, -82.548
 981.4000, -83.319
 981.4100,-210.000
 981.4200, -78.617
 981.4300, -81.161
 981.4400, -79.880
 981.4500, -77.727
 981.4600, -78.691
 981.4700, -81.302
 981.4800, -79.591
 981.4900, -76.971
 981.5000, -78.097
 981.5100, -85.164
 981.5200, -84.669
 981.5300, -84.437
 981.5400, -78.669
 981.5500, -75.549
 981.5600, -80.519
 981.5700, -80.044
 981.5800, -81.257
 981.5900,-210.000
 981.6000, -81.548
 981.6100, -87.223
 981.6200,-210.000
 981.6300, -77.220
 981.6400, -80.862
 981.6500,-210.000
 981.6600, -78.000
 981.6700,-210.000
 981.6800, -79.775
 981.6900, -83.244
 981.7000, -85.632
 981.7100, -79.667
 981.7200, -77.735
 981.7300, -80.005
 981.7400, -82.047
 981.7500,-210.000
 981.7600, -81.784
 981.7700,-210.000
 981.7800, -81.224
 981.7900, -81.711
 981.8000, -91.513
 981.8100,-210.000
 981.8200, -76.949
 981.8300,-210.000
 981.8400, -77.705
 981.8500, -77.909
 981.8600, -81.604
 981.8700, -81.017
 981.8800,-210.000
 981.8900, -81.685
 981.9000, -79.157
 981.9100, -78.247
 981.9200, -82.126
 981.9300, -80.616
 981.9400, -81.839
 981.9500, -82.888
 981.9600, -79.843
 981.9700, -80.109
 981.9800, -77.414
 981.9900, -83.747
 982.0000, -80.144
 982.0100, -78.304
 982.0200, -80.970
 982.0300,-210.000
 982.0400, -82.572
 982.0500, -81.176
 982.0600, -78.362
 982.0700, -83.888
 982.0800, -79.131
 982.0900, -81.581
 982.1000, -79.470
 982.1100, -80.494
 982.1200, -82.089
 982.1300, -77.270
 982.1400, -78.243
 982.1500, -76.802
 982.1600, -83.154
 982.1700,-210.000
 982.1800, -78.692
 982.1900, -77.404
 982.2000, -79.489
 982.2100, -86.365
 982.2200, -83.500
 982.2300, -81.910
 982.2400, -86.872
 982.2500, -83.801
 982.2600, -81.713
 982.2700, -81.530
 982.2800, -82.838
 982.2900, -82.546
 982.3000, -77.672
 982.3100, -81.304
 982.3200, -77.432
 982.3300,-210.000
 982.3400, -83.478
 982.3500, -78.499
 982.3600, -80.805
 982.3700,-105.782
 982.3800, -78.477
 982.3900, -80.014
 982.4000, -78.440
 982.4100, -86.427
 982.4200, -77.871
 982.4300, -77.328
 982.4400, -80.556
 982.4500,-210.000
 982.4600, -81.021
 982.4700, -81.686
 982.4800, -87.484
 982.4900, -79.430
 982.5000, -80.607
 982.5100, -83.703
 982.5200, -77.363
 982.5300, -78.786
 982.5400,-210.000
 982.5500, -93.308
 982.5600, -78.216
 982.5700, -78.758
 982.5800,-210.000
 982.5900,-210.000
 982.6000, -76.512
 982.6100, -83.002
 982.6200, -79.817
 982.6300, -80.718
 982.6400, -83.702
 982.6500, -79.473
 982.6600, -79.179
 982.6700,-210.000
 982.6800,-210.000
 982.6900, -78.998
 982.7000, -78.993
 982.7100,-210.000
 982.7200, -78.494
 982.7300, -82.135
 982.7400, -80.105
 982.7500, -76.472
 982.7600, -79.629
 982.7700,-210.000
 982.7800,-210.000
 982.7900, -80.336
 982.8000, -85.098
 982.8100, -80.765
 982.8200, -94.987
 982.8300, -82.143
 982.8400, -79.666
 982.8500,-210.000
 982.8600, -80.908
 982.8700, -79.752
 982.8800, -81.975
 982.8900,-210.000
 982.9000,-210.000
 982.9100, -82.724
 982.9200, -81.331
 982.9300, -78.854
 982.9400, -78.330
 982.9500, -81.630
 982.9600, -83.191
 982.9700,-210.000
 982.9800, -84.074
 982.9900,-210.000
 983.0000, -80.644
 983.0100, -79.404
 983.0200, -78.360
 983.0300, -84.256
 983.0400, -77.394
 983.0500, -79.324
 983.0600, -78.016
 983.0700, -89.048
 983.0800, -79.766
 983.0900, -94.267
 983.1000, -81.348
 983.1100, -83.508
 983.1200, -78.733
 983.1300, -79.244
 983.1400, -84.963
 983.1500, -78.072
 983.1600, -78.364
 983.1700, -81.015
 983.1800, -80.552
 983.1900, -77.192
 983.2000, -79.146
 983.2100, -81.385
 983.2200, -89.130
 983.2300, -80.207
 983.2400, -75.787
 983.2500,-210.000
 983.2600,-210.000
 983.2700,-210.000
 983.2800, -81.767
 983.2900, -79.071
 983.3000, -86.328
 983.3100, -91.137
 983.3200, -76.056
 983.3300, -80.453
 983.3400, -78.590
 983.3500, -76.224
 983.3600, -84.810
 983.3700, -80.337
 983.3800,-210.000
 983.3900, -81.308
 983.4000, -79.105
 983.4100,-210.000
 983.4200, -84.364
 983.4300, -77.453
 983.4400, -77.960
 983.4500, -90.405
 983.4600, -81.098
 983.4700, -77.768
 983.4800, -80.093
 983.4900, -82.270
 983.5000,-210.000
 983.5100, -77.237
 983.5200, -83.431
 983.5300, -78.067
 983.5400, -89.589
 983.5500,-210.000
 983.5600, -78.938
 983.5700, -77.965
 983.5800, -78.513
 983.5900, -79.528
 983.6000, -81.320
 983.6100, -82.362
 983.6200, -82.404
 983.6300,-210.000
 983.6400, -85.232
 983.6500, -78.906
 983.6600,-210.000
 983.6700, -83.246
 983.6800, -80.191
 983.6900, -80.780
 983.7000, -83.748
 983.7100, -83.162
 983.7200, -80.251
 983.7300, -85.526
 983.7400, -80.534
 983.7500, -83.157
 983.7600, -83.187
 983.7700, -77.631
 983.7800, -79.493
 983.7900, -84.191
 983.8000, -86.080
 983.8100, -79.193
 983.8200, -82.838
 983.8300, -78.681
 983.8400, -81.715
 983.8500, -87.985
 983.8600,-210.000
 983.8700, -81.363
 983.8800,-210.000
 983.8900, -78.305
 983.9000, -82.200
 983.9100,-210.000
 983.9200, -78.299
 983.9300, -79.163
 983.9400,-210.000
 983.9500,-210.000
 983.9600, -79.053
 983.9700, -81.023
 983.9800, -79.584
 983.9900, -80.562
 984.0000, -78.538
 984.0100, -76.540
 984.0200, -85.089
 984.0300, -76.955
 984.0400, -86.056
 984.0500,-210.000
 984.0600, -81.222
 984.0700, -84.622
 984.0800, -83.563
 984.0900, -80.541
 984.1000, -76.992
 984.1100, -88.703
 984.1200, -85.141
 984.1300, -80.691
 984.1400, -82.237
 984.1500, -81.535
 984.1600, -91.147
 984.1700, -80.409
 984.1800, -79.682
 984.1900, -79.593
 984.2000, -80.182
 984.2100, -85.321
 984.2200, -80.055
 984.2300, -82.699
 984.2400, -76.512
 984.2500, -79.040
 984.2600, -77.788
 984.2700, -82.428
 984.2800, -77.808
 984.2900, -77.773
 984.3000, -97.643
 984.3100, -88.299
 984.3200, -84.106
 984.3300,-210.000
 984.3400, -82.261
 984.3500, -77.072
 984.3600, -83.230
 984.3700, -78.970
 984.3800, -80.060
 984.3900, -78.495
 984.4000, -80.323
 984.4100, -84.167
 984.4200, -84.281
 984.4300,-210.000
 984.4400, -76.877
 984.4500, -77.718
 984.4600, -85.953
 984.4700, -80.386
 984.4800, -80.383
 984.4900, -84.397
 984.5000, -81.500
 984.5100, -81.573
 984.5200,-210.000
 984.5300, -89.068
 984.5400, -88.263
 984.5500, -82.999
 984.5600, -80.016
 984.5700, -88.819
 984.5800, -76.437
 984.5900, -79.093
 984.6000, -79.350
 984.6100, -79.137
 984.6200, -83.914
 984.6300, -78.133
 984.6400, -78.213
 984.6500, -79.424
 984.6600, -78.614
 984.6700,-210.000
 984.6800, -81.029
 984.6900, -80.058
 984.7000, -82.150
 984.7100, -82.031
 984.7200, -84.804
 984.7300,-210.000
 984.7400, -79.554
 984.7500, -82.437
 984.7600, -79.584
 984.7700, -80.162
 984.7800, -85.033
 984.7900, -80.459
 984.8000, -82.983
 984.8100, -79.388
 984.8200, -78.898
 984.8300, -77.984
 984.8400, -88.112
 984.8500, -80.176
 984.8600, -90.758
 984.8700, -80.386
 984.8800, -79.326
 984.8900, -76.953
 984.9000,-210.000
 984.9100, -80.882
 984.9200, -83.039
 984.9300, -79.955
 984.9400, -77.961
 984.9500, -83.167
 984.9600, -79.942
 984.9700, -77.360
 984.9800, -81.793
 984.9900, -80.467
 985.0000, -78.061
 985.0100, -81.376
 985.0200, -80.930
 985.0300, -78.361
 985.0400,-210.000
 985.0500, -78.250
 985.0600, -84.173
 985.0700, -80.373
 985.0800, -79.846
 985.0900, -82.281
 985.1000, -78.214
 985.1100, -85.980
 985.1200, -78.824
 985.1300, -80.481
 985.1400, -80.200
 985.1500, -84.150
 985.1600, -83.894
 985.1700, -79.597
 985.1800,-210.000
 985.1900, -80.398
 985.2000, -80.623
 985.2100, -77.834
 985.2200,-210.000
 985.2300, -81.305
 985.2400, -76.969
 985.2500, -79.103
 985.2600, -78.841
 985.2700, -81.231
 985.2800, -82.415
 985.2900, -82.581
 985.3000,-210.000
 985.3100, -75.550
 985.3200,-210.000
 985.3300, -80.023
 985.3400, -82.073
 985.3500, -81.891
 985.3600, -79.679
 985.3700,-210.000
 985.3800,-210.000
 985.3900,-210.000
 985.4000, -78.461
 985.4100, -81.937
 985.4200, -79.166
 985.4300, -80.057
 985.4400, -80.756
 985.4500, -78.282
 985.4600, -80.014
 985.4700, -89.421
 985.4800, -78.980
 985.4900, -79.068
 985.5000, -83.008
 985.5100, -76.578
 985.5200, -78.086
 985.5300, -78.279
 985.5400, -80.132
 985.5500, -82.116
 985.5600,-210.000
 985.5700, -78.617
 985.5800, -81.566
 985.5900, -83.294
 985.6000, -84.543
 985.6100, -78.831
 985.6200, -87.232
 985.6300, -77.368
 985.6400, -80.344
 985.6500, -79.118
 985.6600, -82.783
 985.6700, -77.188
 985.6800, -89.527
 985.6900, -82.450
 985.7000, -81.122
 985.7100, -81.585
 985.7200, -79.853
 985.7300, -82.447
 985.7400, -79.874
 985.7500, -84.551
 985.7600, -87.419
 985.7700,-210.000
 985.7800, -87.119
 985.7900, -80.103
 985.8000, -84.254
 985.8100,-210.000
 985.8200, -83.584
 985.8300, -76.066
 985.8400, -82.728
 985.8500, -78.446
 985.8600, -86.217
 985.8700,-101.092
 985.8800, -78.083
 985.8900,-210.000
 985.9000, -80.960
 985.9100, -83.180
 985.9200, -80.647
 985.9300,-210.000
 985.9400, -84.292
 985.9500, -80.782
 985.9600, -80.884
 985.9700, -81.191
 985.9800, -78.200
 985.9900, -78.517
 986.0000, -78.327
 986.0100, -82.594
 986.0200, -86.682
 986.0300, -81.808
 986.0400, -81.047
 986.0500, -77.089
 986.0600, -79.536
 986.0700, -84.729
 986.0800, -81.917
 986.0900, -84.494
 986.1000, -83.555
 986.1100,-210.000
 986.1200,-210.000
 986.1300, -91.162
 986.1400, -88.141
 986.1500, -77.913
 986.1600,-210.000
 986.1700, -85.528
 986.1800, -77.224
 986.1900,-210.000
 986.2000, -79.213
 986.2100, -79.167
 986.2200, -79.989
 986.2300, -77.308
 986.2400, -80.035
 986.2500,-210.000
 986.2600, -92.226
 986.2700, -78.676
 986.2800, -89.814
 986.2900, -78.012
 986.3000, -80.873
 986.3100, -84.622
 986.3200, -79.836
 986.3300,-210.000
 986.3400, -80.742
 986.3500, -80.299
 986.3600, -78.401
 986.3700, -83.453
 986.3800, -91.986
 986.3900, -82.861
 986.4000,-210.000
 986.4100, -88.086
 986.4200, -78.661
 986.4300, -79.553
 986.4400, -81.235
 986.4500, -88.237
 986.4600, -83.207
 986.4700, -82.358
 986.4800, -79.538
 986.4900,-210.000
 986.5000,-210.000
 986.5100, -84.088
 986.5200, -78.527
 986.5300, -88.171
 986.5400, -80.982
 986.5500, -81.431
 986.5600, -76.933
 986.5700, -82.225
 986.5800, -80.697
 986.5900, -79.867
 986.6000, -81.741
 986.6100, -84.840
 986.6200,-210.000
 986.6300,-210.000
 986.6400, -80.898
 986.6500, -78.428
 986.6600, -81.208
 986.6700,-210.000
 986.6800, -78.495
 986.6900, -85.670
 986.7000,-210.000
 986.7100, -81.434
 986.7200, -79.880
 986.7300, -82.722
 986.7400,-210.000
 986.7500, -90.808
 986.7600, -80.842
 986.7700, -77.343
 986.7800, -86.433
 986.7900, -83.414
 986.8000, -79.132
 986.8100, -77.994
 986.8200, -90.327
 986.8300, -83.690
 986.8400, -86.599
 986.8500, -78.778
 986.8600, -89.144
 986.8700, -78.092
 986.8800, -79.187
 986.8900,-210.000
 986.9000, -85.596
 986.9100, -75.875
 986.9200, -85.560
 986.9300, -85.924
 986.9400, -79.768
 986.9500, -87.079
 986.9600, -78.869
 986.9700, -81.547
 986.9800, -75.609
 986.9900, -82.098
 987.0000, -80.623
 987.0100, -85.275
 987.0200, -86.762
 987.0300,-210.000
 987.0400, -84.763
 987.0500, -81.462
 987.0600, -81.235
 987.0700, -83.475
 987.0800, -80.669
 987.0900, -79.577
 987.1000, -81.133
 987.1100, -79.971
 987.1200, -78.198
 987.1300, -81.395
 987.1400, -82.917
 987.1500,-210.000
 987.1600, -78.251
 987.1700, -80.982
 987.1800, -80.534
 987.1900, -79.885
 987.2000, -84.957
 987.2100,-210.000
 987.2200, -81.257
 987.2300, -80.707
 987.2400, -83.696
 987.2500, -86.623
 987.2600, -79.676
 987.2700, -80.555
 987.2800, -77.140
 987.2900, -80.509
 987.3000, -80.868
 987.3100, -80.140
 987.3200, -86.296
 987.3300, -89.730
 987.3400,-210.000
 987.3500, -85.535
 987.3600, -84.236
 987.3700, -79.169
 987.3800, -78.607
 987.3900, -83.906
 987.4000,-210.000
 987.4100, -80.017
 987.4200, -78.139
 987.4300, -81.915
 987.4400, -77.427
 987.4500, -78.550
 987.4600, -87.629
 987.4700, -81.826
 987.4800, -82.763
 987.4900,-210.000
 987.5000,-210.000
 987.5100, -81.152
 987.5200, -79.036
 987.5300, -78.412
 987.5400, -77.736
 987.5500, -77.820
 987.5600, -85.168
 987.5700, -80.740
 987.5800, -75.702
 987.5900, -81.518
 987.6000, -79.435
 987.6100, -81.739
 987.6200, -78.935
 987.6300, -79.773
 987.6400, -82.891
 987.6500, -78.202
 987.6600, -82.830
 987.6700,-210.000
 987.6800, -87.534
 987.6900, -90.867
 987.7000,-210.000
 987.7100, -78.101
 987.7200, -81.509
 987.7300, -78.728
 987.7400,-210.000
 987.7500, -83.167
 987.7600, -78.575
 987.7700, -78.836
 987.7800, -77.943
 987.7900, -82.799
 987.8000, -76.991
 987.8100, -77.631
 987.8200, -82.894
 987.8300,-210.000
 987.8400,-210.000
 987.8500, -80.503
 987.8600, -79.967
 987.8700, -78.979
 987.8800, -78.434
 987.8900, -85.501
 987.9000, -84.110
 987.9100,-210.000
 987.9200, -87.058
 987.9300, -79.074
 987.9400,-210.000
 987.9500, -80.175
 987.9600,-210.000
 987.9700, -82.226
 987.9800, -78.958
 987.9900, -83.234
 988.0000, -78.580
 988.0100, -92.388
 988.0200, -87.095
 988.0300, -77.885
 988.0400, -84.444
 988.0500, -84.435
 988.0600, -83.675
 988.0700, -81.528
 988.0800, -78.171
 988.0900, -81.019
 988.1000, -81.145
 988.1100, -81.300
 988.1200, -80.202
 988.1300, -79.276
 988.1400, -91.897
 988.1500, -80.166
 988.1600, -80.931
 988.1700,-210.000
 988.1800,-210.000
 988.1900, -77.370
 988.2000, -80.122
 988.2100,-210.000
 988.2200,-210.000
 988.2300,-210.000
 988.2400, -79.567
 988.2500, -83.386
 988.2600, -79.329
 988.2700, -80.983
 988.2800, -78.119
 988.2900,-210.000
 988.3000,-210.000
 988.3100,-210.000
 988.3200, -82.672
 988.3300, -81.614
 988.3400, -82.272
 988.3500, -87.906
 988.3600, -79.460
 988.3700,-210.000
 988.3800,-210.000
 988.3900, -77.918
 988.4000, -88.220
 988.4100, -75.891
 988.4200, -78.551
 988.4300, -83.344
 988.4400,-210.000
 988.4500,-210.000
 988.4600, -78.501
 988.4700, -90.617
 988.4800, -78.086
 988.4900, -81.520
 988.5000,-210.000
 988.5100, -80.184
 988.5200,-210.000
 988.5300, -80.054
 988.5400, -81.156
 988.5500, -79.708
 988.5600,-210.000
 988.5700, -78.688
 988.5800, -75.525
 988.5900, -79.364
 988.6000, -82.475
 988.6100, -80.835
 988.6200, -75.734
 988.6300, -83.937
 988.6400, -85.703
 988.6500, -87.427
 988.6600, -77.738
 988.6700,-210.000
 988.6800, -78.062
 988.6900, -79.533
 988.7000, -81.833
 988.7100, -82.080
 988.7200, -84.532
 988.7300, -76.813
 988.7400, -88.246
 988.7500, -81.664
 988.7600, -81.372
 988.7700, -82.797
 988.7800, -89.023
 988.7900, -80.596
 988.8000, -78.128
 988.8100, -85.008
 988.8200, -80.156
 988.8300, -76.689
 988.8400, -81.375
 988.8500, -88.966
 988.8600, -83.921
 988.8700, -79.262
 988.8800,-210.000
 988.8900, -79.779
 988.9000, -80.915
 988.9100, -79.722
 988.9200, -86.386
 988.9300, -77.594
 988.9400, -79.854
 988.9500, -78.475
 988.9600,-210.000
 988.9700, -79.893
 988.9800, -76.942
 988.9900,-210.000
 989.0000,-210.000
 989.0100, -79.748
 989.0200, -78.154
 989.0300, -86.084
 989.0400, -83.250
 989.0500, -92.644
 989.0600,-210.000
 989.0700, -79.261
 989.0800, -77.318
 989.0900, -80.390
 989.1000, -76.442
 989.1100, -79.047
 989.1200, -88.550
 989.1300,-210.000
 989.1400, -77.829
 989.1500, -79.344
 989.1600, -81.410
 989.1700, -77.943
 989.1800, -86.243
 989.1900, -78.208
 989.2000, -78.889
 989.2100, -88.234
 989.2200, -83.456
 989.2300, -80.709
 989.2400, -79.184
 989.2500, -82.866
 989.2600, -77.768
 989.2700,-210.000
 989.2800,-210.000
 989.2900, -82.671
 989.3000, -82.615
 989.3100,-210.000
 989.3200, -80.661
 989.3300,-210.000
 989.3400, -87.367
 989.3500, -77.682
 989.3600, -79.560
 989.3700, -78.305
 989.3800, -82.167
 989.3900, -80.670
 989.4000, -79.835
 989.4100,-210.000
 989.4200, -77.604
 989.4300, -87.893
 989.4400, -78.859
 989.4500, -84.612
 989.4600, -84.326
 989.4700, -80.603
 989.4800, -81.214
 989.4900, -83.300
 989.5000, -80.137
 989.5100, -80.953
 989.5200, -81.451
 989.5300, -78.608
 989.5400, -78.455
 989.5500, -81.859
 989.5600, -78.111
 989.5700, -82.889
 989.5800, -85.748
 989.5900, -79.782
 989.6000, -82.027
 989.6100, -87.871
 989.6200, -77.946
 989.6300, -78.458
 989.6400, -91.318
 989.6500, -82.052
 989.6600, -81.046
 989.6700, -79.700
 989.6800, -84.504
 989.6900, -79.870
 989.7000, -82.877
 989.7100, -79.821
 989.7200, -78.465
 989.7300, -82.481
 989.7400, -77.661
 989.7500, -80.475
 989.7600,-210.000
 989.7700, -78.169
 989.7800, -88.927
 989.7900, -84.160
 989.8000, -79.629
 989.8100, -80.047
 989.8200, -81.367
 989.8300, -77.537
 989.8400,-210.000
 989.8500, -80.503
 989.8600, -84.833
 989.8700, -79.271
 989.8800, -85.161
 989.8900, -83.704
 989.9000, -85.555
 989.9100, -84.089
 989.9200, -78.123
 989.9300,-210.000
 989.9400,-210.000
 989.9500, -83.424
 989.9600, -84.418
 989.9700, -80.303
 989.9800, -78.198
 989.9900, -83.083
 990.0000, -79.321
 990.0100,-210.000
 990.0200, -80.661
 990.0300,-210.000
 990.0400, -84.906
 990.0500, -82.832
 990.0600, -78.455
 990.0700, -78.437
 990.0800, -79.569
 990.0900, -79.521
 990.1000, -80.678
 990.1100, -83.862
 990.1200,-210.000
 990.1300, -77.792
 990.1400, -78.691
 990.1500, -79.409
 990.1600, -81.550
 990.1700, -81.067
 990.1800, -87.914
 990.1900, -78.044
 990.2000, -86.843
 990.2100, -79.583
 990.2200, -83.692
 990.2300, -79.840
 990.2400, -82.280
 990.2500, -83.395
 990.2600, -78.123
 990.2700, -85.212
 990.2800, -80.980
 990.2900, -79.470
 990.3000, -78.237
 990.3100, -77.845
 990.3200, -80.934
 990.3300, -78.891
 990.3400, -80.990
 990.3500, -76.899
 990.3600, -82.368
 990.3700, -85.965
 990.3800, -80.356
 990.3900, -82.076
 990.4000, -80.099
 990.4100, -77.139
 990.4200, -79.602
 990.4300, -79.485
 990.4400, -78.532
 990.4500,-210.000
 990.4600, -79.318
 990.4700, -77.968
 990.4800, -78.849
 990.4900, -77.110
 990.5000, -80.420
 990.5100,-210.000
 990.5200, -81.041
 990.5300, -78.894
 990.5400, -85.016
 990.5500, -82.491
 990.5600, -78.559
 990.5700,-210.000
 990.5800, -79.600
 990.5900, -78.546
 990.6000, -83.881
 990.6100, -84.518
 990.6200,-210.000
 990.6300, -98.183
 990.6400, -78.444
 990.6500, -83.493
 990.6600, -79.180
 990.6700, -78.697
 990.6800, -80.967
 990.6900, -82.727
 990.7000,-210.000
 990.7100, -86.631
 990.7200, -80.101
 990.7300, -82.548
 990.7400, -85.218
 990.7500, -77.265
 990.7600, -78.001
 990.7700, -88.022
 990.7800, -78.922
 990.7900, -76.684
 990.8000, -82.794
 990.8100, -81.146
 990.8200, -79.354
 990.8300, -84.850
 990.8400, -77.417
 990.8500, -81.457
 990.8600, -80.156
 990.8700, -84.599
 990.8800, -79.727
 990.8900, -79.466
 990.9000,-210.000
 990.9100, -78.610
 990.9200, -81.837
 990.9300, -77.820
 990.9400, -80.078
 990.9500, -79.731
 990.9600, -84.979
 990.9700,-210.000
 990.9800, -83.969
 990.9900, -81.600
 991.0000, -77.709
 991.0100, -77.296
 991.0200,-210.000
 991.0300, -80.500
 991.0400, -77.989
 991.0500,-210.000
 991.0600, -82.753
 991.0700,-210.000
 991.0800, -76.530
 991.0900, -79.311
 991.1000, -89.331
 991.1100, -81.452
 991.1200, -80.426
 991.1300, -83.875
 991.1400, -81.331
 991.1500, -78.841
 991.1600, -84.964
 991.1700, -84.512
 991.1800,-210.000
 991.1900, -87.918
 991.2000, -80.266
 991.2100, -79.934
 991.2200,-210.000
 991.2300, -80.514
 991.2400, -80.241
 991.2500, -82.773
 991.2600, -82.666
 991.2700, -78.250
 991.2800, -78.470
 991.2900, -83.676
 991.3000, -83.238
 991.3100,-101.520
 991.3200,-210.000
 991.3300, -78.788
 991.3400, -80.412
 991.3500, -79.722
 991.3600, -79.708
 991.3700, -78.583
 991.3800, -85.132
 991.3900, -87.986
 991.4000,-210.000
 991.4100, -80.282
 991.4200,-210.000
 991.4300, -78.179
 991.4400, -79.487
 991.4500, -79.444
 991.4600, -77.998
 991.4700, -83.118
 991.4800, -82.999
 991.4900, -79.763
 991.5000, -79.473
 991.5100,-210.000
 991.5200, -77.857
 991.5300, -79.474
 991.5400,-210.000
 991.5500, -92.194
 991.5600, -76.463
 991.5700,-210.000
 991.5800, -81.596
 991.5900, -80.246
 991.6000, -84.180
 991.6100,-210.000
 991.6200,-210.000
 991.6300, -84.441
 991.6400,-210.000
 991.6500, -78.651
 991.6600, -77.238
 991.6700, -89.463
 991.6800,-210.000
 991.6900,-210.000
 991.7000, -79.559
 991.7100, -76.643
 991.7200,-210.000
 991.7300, -85.186
 991.7400, -83.876
 991.7500,-210.000
 991.7600, -78.643
 991.7700, -80.408
 991.7800, -78.567
 991.7900, -80.865
 991.8000, -78.232
 991.8100, -79.613
 991.8200, -79.749
 991.8300, -79.827
 991.8400, -87.438
 991.8500, -83.511
 991.8600, -80.748
 991.8700,-210.000
 991.8800, -81.043
 991.8900, -85.105
 991.9000, -79.295
 991.9100, -77.594
 991.9200, -78.879
 991.9300, -78.024
 991.9400, -85.502
 991.9500,-210.000
 991.9600, -81.049
 991.9700, -81.122
 991.9800, -77.822
 991.9900, -81.409
 992.0000, -81.918
 992.0100, -81.401
 992.0200, -79.608
 992.0300, -81.952
 992.0400, -78.523
 992.0500,-210.000
 992.0600, -80.737
 992.0700, -77.907
 992.0800, -80.610
 992.0900, -78.518
 992.1000, -80.263
 992.1100, -78.519
 992.1200,-210.000
 992.1300, -77.605
 992.1400, -78.557
 992.1500, -82.687
 992.1600,-210.000
 992.1700, -79.782
 992.1800, -98.903
 992.1900, -79.317
 992.2000, -83.174
 992.2100, -82.478
 992.2200, -80.722
 992.2300, -78.704
 992.2400, -80.321
 992.2500, -79.825
 992.2600, -80.264
 992.2700, -79.241
 992.2800, -78.780
 992.2900, -80.561
 992.3000,-210.000
 992.3100, -81.898
 992.3200, -80.870
 992.3300, -78.418
 992.3400,-210.000
 992.3500, -94.078
 992.3600, -80.962
 992.3700, -76.909
 992.3800, -81.879
 992.3900, -81.145
 992.4000, -81.655
 992.4100, -76.954
 992.4200, -81.175
 992.4300, -78.628
 992.4400, -85.391
 992.4500, -77.752
 992.4600, -78.543
 992.4700, -81.191
 992.4800, -79.328
 992.4900, -80.491
 992.5000, -82.563
 992.5100, -91.258
 992.5200, -79.932
 992.5300, -77.371
 992.5400, -83.675
 992.5500, -82.796
 992.5600, -76.831
 992.5700, -77.246
 992.5800, -81.345
 992.5900, -89.306
 992.6000, -77.319
 992.6100, -83.066
 992.6200,-210.000
 992.6300, -79.133
 992.6400, -77.959
 992.6500,-210.000
 992.6600, -82.455
 992.6700,-210.000
 992.6800,-210.000
 992.6900, -82.445
 992.7000,-210.000
 992.7100, -80.599
 992.7200, -77.920
 992.7300,-210.000
 992.7400, -80.434
 992.7500,-210.000
 992.7600, -83.547
 992.7700, -79.369
 992.7800, -80.268
 992.7900, -79.667
 992.8000, -78.191
 992.8100, -83.344
 992.8200, -94.797
 992.8300, -78.427
 992.8400, -78.981
 992.8500,-210.000
 992.8600, -78.617
 992.8700, -88.114
 992.8800, -79.316
 992.8900, -77.761
 992.9000, -82.012
 992.9100, -87.229
 992.9200, -78.600
 992.9300, -78.597
 992.9400,-210.000
 992.9500, -79.219
 992.9600, -80.211
 992.9700, -79.048
 992.9800, -79.192
 992.9900, -79.590
 993.0000, -77.286
 993.0100, -76.966
 993.0200, -79.410
 993.0300, -82.854
 993.0400, -79.755
 993.0500, -80.063
 993.0600,-210.000
 993.0700, -81.883
 993.0800,-210.000
 993.0900, -80.062
 993.1000, -81.475
 993.1100, -79.777
 993.1200,-210.000
 993.1300,-210.000
 993.1400, -78.314
 993.1500, -78.511
 993.1600,-210.000
 993.1700, -82.509
 993.1800, -78.710
 993.1900, -82.345
 993.2000, -80.468
 993.2100, -83.693
 993.2200, -81.886
 993.2300, -79.569
 993.2400, -77.149
 993.2500,-210.000
 993.2600, -83.489
 993.2700, -81.757
 993.2800, -77.126
 993.2900, -93.014
 993.3000, -84.170
 993.3100, -81.198
 993.3200, -78.760
 993.3300, -81.988
 993.3400, -76.292
 993.3500, -84.411
 993.3600, -77.667
 993.3700, -80.788
 993.3800, -76.559
 993.3900,-210.000
 993.4000, -82.266
 993.4100, -79.788
 993.4200, -78.994
 993.4300, -77.904
 993.4400, -78.087
 993.4500, -92.589
 993.4600,-210.000
 993.4700, -81.126
 993.4800, -81.156
 993.4900, -82.141
 993.5000, -79.384
 993.5100, -80.074
 993.5200,-210.000
 993.5300, -79.849
 993.5400, -81.656
 993.5500, -79.861
 993.5600, -90.060
 993.5700, -86.248
 993.5800, -87.680
 993.5900, -75.489
 993.6000, -78.956
 993.6100, -77.965
 993.6200, -77.478
 993.6300, -83.739
 993.6400, -92.855
 993.6500, -82.633
 993.6600, -82.099
 993.6700,-210.000
 993.6800, -80.044
 993.6900, -80.526
 993.7000, -79.322
 993.7100, -84.359
 993.7200, -80.301
 993.7300, -79.391
 993.7400, -78.610
 993.7500, -84.167
 993.7600,-210.000
 993.7700, -78.660
 993.7800,-210.000
 993.7900, -77.590
 993.8000,-210.000
 993.8100, -80.842
 993.8200, -81.312
 993.8300, -79.439
 993.8400, -77.238
 993.8500, -81.782
 993.8600, -78.594
 993.8700, -78.244
 993.8800, -90.709
 993.8900, -78.260
 993.9000, -77.107
 993.9100, -78.529
 993.9200, -88.113
 993.9300, -78.824
 993.9400, -82.193
 993.9500,-210.000
 993.9600, -78.134
 993.9700, -78.480
 993.9800, -91.492
 993.9900, -78.249
 994.0000, -80.506
 994.0100, -89.700
 994.0200,-210.000
 994.0300, -84.672
 994.0400, -79.712
 994.0500, -78.383
 994.0600, -81.881
 994.0700,-210.000
 994.0800,-210.000
 994.0900, -77.325
 994.1000, -82.396
 994.1100,-210.000
 994.1200, -83.796
 994.1300, -82.234
 994.1400, -77.583
 994.1500, -79.028
 994.1600, -80.438
 994.1700, -83.441
 994.1800,-210.000
 994.1900, -76.725
 994.2000, -78.385
 994.2100, -78.663
 994.2200,-210.000
 994.2300, -79.296
 994.2400, -79.989
 994.2500, -80.718
 994.2600, -90.095
 994.2700, -85.139
 994.2800, -81.155
 994.2900, -79.362
 994.3000, -83.051
 994.3100,-210.000
 994.3200, -79.795
 994.3300, -79.910
 994.3400, -77.991
 994.3500, -91.084
 994.3600, -79.360
 994.3700, -84.072
 994.3800, -87.043
 994.3900, -78.887
 994.4000, -83.944
 994.4100, -80.828
 994.4200, -78.434
 994.4300,-210.000
 994.4400, -77.583
 994.4500, -77.874
 994.4600, -76.550
 994.4700, -78.694
 994.4800, -85.584
 994.4900, -80.501
 994.5000, -79.572
 994.5100,-210.000
 994.5200, -82.991
 994.5300, -80.136
 994.5400, -80.715
 994.5500, -78.846
 994.5600, -87.984
 994.5700, -83.590
 994.5800, -79.958
 994.5900, -78.583
 994.6000, -81.176
 994.6100, -80.220
 994.6200, -84.112
 994.6300, -79.041
 994.6400, -85.248
 994.6500, -86.881
 994.6600, -79.127
 994.6700, -80.946
 994.6800, -77.641
 994.6900, -79.520
 994.7000, -78.169
 994.7100, -81.770
 994.7200, -77.888
 994.7300, -78.522
 994.7400, -79.732
 994.7500, -77.745
 994.7600, -81.067
 994.7700, -77.945
 994.7800, -79.282
 994.7900, -78.753
 994.8000, -76.829
 994.8100, -85.620
 994.8200, -80.429
 994.8300, -85.702
 994.8400, -82.362
 994.8500,-210.000
 994.8600, -81.611
 994.8700, -79.602
 994.8800, -81.551
 994.8900, -79.705
 994.9000, -79.043
 994.9100, -81.216
 994.9200, -82.019
 994.9300, -85.924
 994.9400, -79.343
 994.9500, -84.340
 994.9600, -81.017
 994.9700,-210.000
 994.9800, -77.947
 994.9900, -77.902
 995.0000, -78.333
 995.0100, -77.945
 995.0200,-210.000
 995.0300, -94.522
 995.0400, -80.735
 995.0500, -78.244
 995.0600, -80.748
 995.0700, -76.129
 995.0800, -82.185
 995.0900, -77.528
 995.1000, -88.362
 995.1100, -81.160
 995.1200, -76.479
 995.1300, -79.869
 995.1400,-210.000
 995.1500,-210.000
 995.1600, -77.265
 995.1700, -81.875
 995.1800,-210.000
 995.1900, -87.831
 995.2000, -78.796
 995.2100, -82.969
 995.2200, -87.990
 995.2300, -79.127
 995.2400, -84.667
 995.2500, -78.064
 995.2600, -78.249
 995.2700, -82.942
 995.2800, -77.958
 995.2900, -79.517
 995.3000, -85.231
 995.3100,-210.000
 995.3200, -77.496
 995.3300, -80.678
 995.3400, -77.193
 995.3500, -76.210
 995.3600, -78.887
 995.3700, -77.314
 995.3800, -87.599
 995.3900,-122.489
 995.4000,-210.000
 995.4100, -91.196
 995.4200, -79.750
 995.4300, -81.597
 995.4400, -82.349
 995.4500,-210.000
 995.4600, -84.192
 995.4700, -82.676
 995.4800,-210.000
 995.4900, -78.050
 995.5000,-210.000
 995.5100,-210.000
 995.5200, -81.519
 995.5300, -80.039
 995.5400, -79.393
 995.5500, -84.691
 995.5600, -82.974
 995.5700, -84.007
 995.5800, -80.157
 995.5900, -88.387
 995.6000, -77.299
 995.6100, -77.291
 995.6200, -81.780
 995.6300, -78.689
 995.6400, -77.409
 995.6500,-210.000
 995.6600, -82.284
 995.6700, -79.295
 995.6800, -84.035
 995.6900, -81.193
 995.7000, -85.219
 995.7100,-210.000
 995.7200, -77.816
 995.7300, -79.145
 995.7400, -79.470
 995.7500, -79.650
 995.7600, -83.177
 995.7700, -80.576
 995.7800, -87.071
 995.7900, -78.629
 995.8000, -80.335
 995.8100, -78.002
 995.8200, -78.867
 995.8300,-210.000
 995.8400, -76.257
 995.8500, -82.478
 995.8600, -83.448
 995.8700,-100.211
 995.8800, -86.176
 995.8900, -78.073
 995.9000, -83.844
 995.9100, -82.927
 995.9200, -76.881
 995.9300, -79.339
 995.9400, -76.905
 995.9500, -78.904
 995.9600, -80.703
 995.9700, -79.888
 995.9800, -81.561
 995.9900, -78.831
 996.0000, -89.139
 996.0100, -82.040
 996.0200,-210.000
 996.0300, -82.189
 996.0400, -84.733
 996.0500, -79.583
 996.0600, -81.830
 996.0700, -87.015
 996.0800, -79.011
 996.0900, -84.115
 996.1000, -82.905
 996.1100, -80.845
 996.1200, -81.151
 996.1300, -83.744
 996.1400,-210.000
 996.1500, -80.502
 996.1600, -98.276
 996.1700, -80.184
 996.1800, -83.174
 996.1900, -80.062
 996.2000, -77.071
 996.2100, -79.605
 996.2200,-210.000
 996.2300, -93.206
 996.2400, -80.175
 996.2500, -84.141
 996.2600, -87.779
 996.2700, -80.917
 996.2800, -80.484
 996.2900, -80.562
 996.3000, -81.758
 996.3100,-210.000
 996.3200, -87.535
 996.3300, -80.649
 996.3400,-210.000
 996.3500, -90.813
 996.3600,-210.000
 996.3700, -83.836
 996.3800, -77.805
 996.3900, -93.261
 996.4000, -80.587
 996.4100, -88.454
 996.4200, -84.476
 996.4300, -80.071
 996.4400, -80.164
 996.4500,-210.000
 996.4600, -80.358
 996.4700, -80.377
 996.4800, -88.704
 996.4900,-210.000
 996.5000, -76.367
 996.5100, -80.257
 996.5200, -79.282
 996.5300, -83.224
 996.5400, -81.075
 996.5500, -76.843
 996.5600,-210.000
 996.5700, -81.872
 996.5800, -79.112
 996.5900, -82.324
 996.6000, -82.087
 996.6100,-210.000
 996.6200, -78.708
 996.6300, -83.564
 996.6400, -82.745
 996.6500, -83.621
 996.6600, -79.779
 996.6700, -81.057
 996.6800,-210.000
 996.6900, -79.090
 996.7000,-210.000
 996.7100, -78.818
 996.7200, -98.415
 996.7300, -77.212
 996.7400, -81.385
 996.7500, -86.693
 996.7600, -83.584
 996.7700,-210.000
 996.7800,-210.000
 996.7900, -77.843
 996.8000, -79.570
 996.8100,-100.764
 996.8200, -79.843
 996.8300, -82.342
 996.8400, -82.933
 996.8500, -78.521
 996.8600, -77.423
 996.8700, -80.722
 996.8800, -79.647
 996.8900, -81.548
 996.9000, -84.138
 996.9100, -79.814
 996.9200,-210.000
 996.9300, -77.043
 996.9400,-210.000
 996.9500, -84.383
 996.9600, -83.427
 996.9700, -81.784
 996.9800, -78.793
 996.9900, -86.176
 997.0000, -80.084
 997.0100, -77.237
 997.0200, -78.061
 997.0300, -80.817
 997.0400, -76.904
 997.0500, -86.699
 997.0600, -82.092
 997.0700, -82.321
 997.0800, -82.828
 997.0900, -79.753
 997.1000, -82.127
 997.1100, -79.711
 997.1200, -76.544
 997.1300, -81.718
 997.1400,-210.000
 997.1500, -78.852
 997.1600, -76.523
 997.1700, -80.458
 997.1800,-210.000
 997.1900, -79.445
 997.2000,-210.000
 997.2100,-210.000
 997.2200, -80.431
 997.2300, -81.464
 997.2400, -80.768
 997.2500, -75.647
 997.2600, -83.294
 997.2700, -83.582
 997.2800, -80.557
 997.2900, -79.481
 997.3000, -83.898
 997.3100, -84.969
 997.3200, -77.199
 997.3300, -79.550
 997.3400, -78.421
 997.3500, -78.780
 997.3600, -83.897
 997.3700, -78.856
 997.3800, -79.702
 997.3900, -84.403
 997.4000, -78.971
 997.4100, -81.574
 997.4200, -79.264
 997.4300,-210.000
 997.4400, -78.110
 997.4500,-210.000
 997.4600, -83.218
 997.4700,-210.000
 997.4800, -81.803
 997.4900, -96.339
 997.5000, -81.138
 997.5100, -79.874
 997.5200, -79.559
 997.5300, -77.469
 997.5400, -81.803
 997.5500, -79.909
 997.5600, -79.403
 997.5700, -82.278
 997.5800, -79.636
 997.5900, -79.818
 997.6000, -82.388
 997.6100, -80.892
 997.6200,-210.000
 997.6300,-210.000
 997.6400, -80.986
 997.6500, -77.750
 997.6600, -78.970
 997.6700, -79.302
 997.6800, -76.827
 997.6900, -84.664
 997.7000, -81.282
 997.7100, -75.509
 997.7200, -77.703
 997.7300, -78.002
 997.7400, -84.323
 997.7500, -78.009
 997.7600, -78.847
 997.7700, -85.684
 997.7800, -82.623
 997.7900, -81.196
 997.8000, -90.564
 997.8100,-210.000
 997.8200, -82.164
 997.8300, -90.493
 997.8400, -88.069
 997.8500, -78.823
 997.8600, -86.229
 997.8700, -80.419
 997.8800, -80.662
 997.8900, -86.104
 997.9000, -78.461
 997.9100, -79.116
 997.9200, -81.450
 997.9300,-210.000
 997.9400, -78.158
 997.9500, -78.379
 997.9600,-210.000
 997.9700, -76.043
 997.9800, -78.599
 997.9900, -82.459
 998.0000,-210.000
 998.0100, -79.478
 998.0200, -75.894
 998.0300, -86.386
 998.0400, -82.489
 998.0500, -78.341
 998.0600,-210.000
 998.0700,-210.000
 998.0800, -82.231
 998.0900, -81.082
 998.1000, -80.062
 998.1100, -77.702
 998.1200, -83.694
 998.1300, -86.066
 998.1400, -77.681
 998.1500, -82.310
 998.1600, -81.119
 998.1700, -80.592
 998.1800, -77.535
 998.1900, -82.049
 998.2000, -91.658
 998.2100, -76.969
 998.2200, -85.648
 998.2300, -85.039
 998.2400,-210.000
 998.2500, -79.504
 998.2600, -79.054
 998.2700, -83.728
 998.2800,-210.000
 998.2900, -79.364
 998.3000, -84.517
 998.3100, -83.203
 998.3200, -81.688
 998.3300, -77.107
 998.3400, -78.509
 998.3500, -84.070
 998.3600, -77.392
 998.3700, -81.131
 998.3800, -81.772
 998.3900,-210.000
 998.4000, -78.664
 998.4100, -77.364
 998.4200, -76.394
 998.4300, -79.139
 998.4400, -81.047
 998.4500, -77.654
 998.4600, -80.265
 998.4700,-210.000
 998.4800, -77.671
 998.4900, -87.992
 998.5000,-210.000
 998.5100, -83.354
 998.5200, -80.423
 998.5300, -78.170
 998.5400, -79.064
 998.5500, -83.283
 998.5600,-210.000
 998.5700, -77.474
 998.5800, -79.802
 998.5900, -88.104
 998.6000, -82.027
 998.6100, -78.840
 998.6200,-210.000
 998.6300, -76.538
 998.6400, -84.455
 998.6500, -87.411
 998.6600,-210.000
 998.6700, -88.329
 998.6800, -78.098
 998.6900, -81.461
 998.7000, -83.573
 998.7100, -76.673
 998.7200, -78.751
 998.7300,-210.000
 998.7400, -80.880
 998.7500,-210.000
 998.7600, -78.499
 998.7700, -85.082
 998.7800, -82.910
 998.7900, -76.556
 998.8000, -83.191
 998.8100, -82.119
 998.8200, -83.147
 998.8300, -76.663
 998.8400, -82.126
 998.8500, -77.044
 998.8600, -81.241
 998.8700, -77.122
 998.8800, -80.828
 998.8900, -81.235
 998.9000, -87.688
 998.9100, -82.825
 998.9200, -81.179
 998.9300, -76.871
 998.9400, -79.873
 998.9500, -90.554
 998.9600, -82.996
 998.9700, -79.916
 998.9800, -90.294
 998.9900, -82.474
 999.0000, -81.703
 999.0100, -84.386
 999.0200, -80.417
 999.0300, -80.915
 999.0400, -81.080
 999.0500, -85.828
 999.0600,-210.000
 999.0700, -80.111
 999.0800, -87.838
 999.0900, -78.666
 999.1000, -82.273
 999.1100, -81.715
 999.1200, -83.954
 999.1300, -81.025
 999.1400, -78.679
 999.1500, -77.765
 999.1600, -79.841
 999.1700, -80.997
 999.1800, -82.186
 999.1900, -84.861
 999.2000,-210.000
 999.2100, -82.027
 999.2200,-210.000
 999.2300, -81.021
 999.2400, -78.300
 999.2500, -81.469
 999.2600,-210.000
 999.2700,-210.000
 999.2800, -77.396
 999.2900, -81.071
 999.3000, -94.318
 999.3100, -83.955
 999.3200,-210.000
 999.3300, -82.038
 999.3400,-210.000
 999.3500, -80.337
 999.3600,-210.000
 999.3700, -81.261
 999.3800, -82.115
 999.3900, -78.582
 999.4000, -79.538
 999.4100, -77.540
 999.4200, -78.259
 999.4300, -80.945
 999.4400, -83.250
 999.4500, -79.539
 999.4600, -81.465
 999.4700,-210.000
 999.4800, -84.100
 999.4900, -79.040
 999.5000, -98.962
 999.5100, -76.790
 999.5200, -84.073
 999.5300, -83.134
 999.5400, -82.031
 999.5500, -82.571
 999.5600, -85.038
 999.5700, -79.574
 999.5800, -84.440
 999.5900, -85.998
 999.6000, -80.247
 999.6100, -81.396
 999.6200, -88.427
 999.6300, -84.128
 999.6400, -79.597
 999.6500, -82.585
 999.6600, -78.735
 999.6700, -80.654
 999.6800, -79.793
 999.6900, -78.240
 999.7000, -95.506
 999.7100, -80.696
 999.7200, -78.013
 999.7300, -85.399
 999.7400, -82.137
 999.7500, -80.830
 999.7600, -80.189
 999.7700, -79.693
 999.7800, -79.948
 999.7900, -81.135
 999.8000,-210.000
 999.8100, -80.593
 999.8200, -83.570
 999.8300, -80.499
 999.8400,-210.000
 999.8500, -77.615
 999.8600,-210.000
 999.8700, -79.347
 999.8800, -77.137
 999.8900, -80.153
 999.9000, -79.145
 999.9100, -79.497
 999.9200, -83.141
 999.9300, -78.756
 999.9400, -79.652
 999.9500, -80.168
 999.9600, -79.345
 999.9700, -82.882
 999.9800,-210.000
 999.9900, -80.640
1000.0000, -84.367
1000.0100, -83.333
1000.0200, -77.033
1000.0300, -81.640
1000.0400, -79.631
1000.0500, -86.078
1000.0600,-210.000
1000.0700, -83.112
1000.0800, -80.297
1000.0900, -79.556
1000.1000, -78.419
1000.1100, -79.737
1000.1200,-210.000
1000.1300, -78.421
1000.1400, -81.703
1000.1500,-210.000
1000.1600, -89.954
1000.1700, -78.585
1000.1800,-210.000
1000.1900, -82.983
1000.2000, -87.101
1000.2100, -87.421
1000.2200, -88.913
1000.2300, -79.923
1000.2400, -79.945
1000.2500, -84.201
1000.2600, -86.359
1000.2700, -83.972
1000.2800, -79.044
1000.2900, -78.781
1000.3000, -78.430
1000.3100, -83.060
1000.3200, -79.965
1000.3300, -81.278
1000.3400,-210.000
1000.3500, -78.346
1000.3600, -79.741
1000.3700, -77.681
1000.3800, -83.925
1000.3900, -83.830
1000.4000,-210.000
1000.4100, -77.500
1000.4200, -82.446
1000.4300, -79.600
1000.4400, -80.935
1000.4500, -85.889
1000.4600, -84.036
1000.4700, -86.396
1000.4800,-210.000
1000.4900, -81.808
1000.5000,-210.000
1000.5100,-210.000
1000.5200, -77.580
1000.5300, -80.839
1000.5400, -79.087
1000.5500, -79.607
1000.5600, -81.464
1000.5700,-210.000
1000.5800, -79.393
1000.5900,-210.000
1000.6000, -82.505
1000.6100, -79.036
1000.6200, -86.985
1000.6300,-100.625
1000.6400, -78.701
1000.6500, -80.997
1000.6600, -76.481
1000.6700, -79.572
1000.6800, -79.272
1000.6900,-210.000
1000.7000, -80.586
1000.7100, -76.606
1000.7200,-101.440
1000.7300, -83.788
1000.7400, -80.819
1000.7500, -79.632
1000.7600, -79.251
1000.7700, -81.030
1000.7800, -81.913
1000.7900, -79.325
1000.8000, -89.086
1000.8100, -82.433
1000.8200, -90.094
1000.8300, -78.820
1000.8400, -80.109
1000.8500, -81.422
1000.8600, -79.714
1000.8700, -79.179
1000.8800, -81.924
1000.8900, -78.807
1000.9000, -83.642
1000.9100,-210.000
1000.9200, -81.229
1000.9300, -79.225
1000.9400, -86.512
1000.9500, -86.783
1000.9600,-210.000
1000.9700, -84.467
1000.9800, -79.377
1000.9900,-210.000
1001.0000, -76.601
